TESTE DA PLACA: RFFE

Operador: Fernando
Numero de Serie: 11111111
RFFE Software Version: V2_0002
RFFE - IP: 10.0.18.9
RFFE - Communication: OK
Start Time: 23-02-2017 20:52:50
End Time: 23-02-2017 20:52:50
Duracao do Teste: 6.609 min

Set-up Info:
Network Analyzer Model: E5062A
Network Analyzer - IP: 10.0.18.20
Network Analyzer - Communication: OK
Waveform Generator Model: 33500B
Waveform Generator - IP: 10.0.18.13
Waveform Generator - Communication: OK
RF Switch Model: RC-2SP4T-A18
RF Switch1 - IP: 10.0.18.12
RF Switch1 - Communication: OK
RF Switch2 - IP: 10.0.18.15
RF Switch2 - Communication: OK
DC Power Supply Model: 6626A

RESULTS:

RFFE Ch: 1-1

Freq [MHz]  S11 [dB]    S12 [dB]    S21 [dB]    S22 [dB]    
430.0       -2.57       -54.4       -44.37      -17.94      
430.05625   -2.56       -57.7       -44.08      -17.94      
430.1125    -2.53       -62.17      -46.54      -17.88      
430.16875   -2.53       -80.81      -43.75      -17.95      
430.225     -2.56       -55.21      -44.99      -17.94      
430.28125   -2.56       -53.81      -43.25      -17.93      
430.3375    -2.55       -59.75      -43.18      -17.78      
430.39375   -2.55       -63.58      -43.83      -18.03      
430.45      -2.46       -55.82      -46.46      -17.84      
430.50625   -2.54       -58.62      -42.06      -17.87      
430.5625    -2.48       -56.77      -42.71      -17.8       
430.61875   -2.55       -56.26      -43.65      -17.87      
430.675     -2.54       -63.87      -44.98      -17.93      
430.73125   -2.55       -70.16      -43.32      -17.79      
430.7875    -2.53       -53.47      -46.94      -17.93      
430.84375   -2.52       -62.1       -42.45      -18.0       
430.9       -2.52       -56.27      -43.93      -17.85      
430.95625   -2.55       -51.15      -43.02      -17.94      
431.0125    -2.54       -54.87      -45.65      -17.92      
431.06875   -2.52       -67.18      -41.77      -17.85      
431.125     -2.52       -58.59      -44.8       -17.95      
431.18125   -2.55       -54.35      -43.73      -17.88      
431.2375    -2.54       -59.19      -44.64      -17.74      
431.29375   -2.55       -64.51      -43.68      -17.87      
431.35      -2.5        -66.72      -43.27      -17.78      
431.40625   -2.52       -58.86      -42.03      -17.96      
431.4625    -2.52       -57.4       -45.11      -17.75      
431.51875   -2.56       -52.96      -41.8       -17.85      
431.575     -2.55       -61.21      -43.2       -17.73      
431.63125   -2.59       -54.57      -42.76      -17.79      
431.6875    -2.54       -70.6       -45.98      -17.74      
431.74375   -2.55       -61.9       -42.27      -17.85      
431.8       -2.61       -53.35      -43.79      -17.7       
431.85625   -2.61       -53.17      -43.84      -17.82      
431.9125    -2.54       -65.18      -43.98      -17.8       
431.96875   -2.62       -58.04      -41.44      -17.77      
432.025     -2.6        -62.75      -44.49      -17.81      
432.08125   -2.58       -57.58      -41.94      -17.87      
432.1375    -2.59       -67.4       -45.16      -17.85      
432.19375   -2.63       -67.06      -41.77      -17.93      
432.25      -2.63       -50.85      -46.95      -17.71      
432.30625   -2.62       -52.72      -41.44      -17.62      
432.3625    -2.63       -56.56      -46.72      -17.75      
432.41875   -2.68       -59.78      -42.27      -17.83      
432.475     -2.65       -69.01      -47.09      -17.87      
432.53125   -2.69       -66.08      -41.47      -17.77      
432.5875    -2.65       -62.78      -44.98      -17.8       
432.64375   -2.64       -57.68      -43.25      -17.75      
432.7       -2.66       -57.23      -43.89      -17.69      
432.75625   -2.67       -61.92      -43.88      -17.84      
432.8125    -2.64       -64.03      -45.39      -17.59      
432.86875   -2.67       -56.47      -43.93      -17.71      
432.925     -2.62       -53.33      -48.86      -17.73      
432.98125   -2.68       -63.25      -43.97      -17.83      
433.0375    -2.66       -58.11      -47.57      -17.95      
433.09375   -2.65       -64.15      -44.72      -17.73      
433.15      -2.68       -57.93      -45.44      -17.64      
433.20625   -2.67       -53.69      -43.17      -17.69      
433.2625    -2.63       -55.98      -45.76      -17.75      
433.31875   -2.63       -53.8       -44.82      -17.63      
433.375     -2.64       -55.44      -44.97      -17.72      
433.43125   -2.64       -54.48      -44.13      -17.78      
433.4875    -2.66       -58.04      -45.59      -17.6       
433.54375   -2.65       -61.79      -43.47      -17.8       
433.6       -2.67       -58.81      -47.39      -17.74      
433.65625   -2.69       -58.71      -44.61      -17.72      
433.7125    -2.65       -64.2       -46.6       -17.63      
433.76875   -2.64       -55.64      -42.56      -17.76      
433.825     -2.68       -53.2       -45.14      -17.62      
433.88125   -2.63       -56.16      -43.42      -17.73      
433.9375    -2.63       -55.61      -45.29      -17.74      
433.99375   -2.6        -56.83      -44.06      -17.87      
434.05      -2.64       -57.76      -46.51      -17.7       
434.10625   -2.65       -56.05      -43.99      -17.64      
434.1625    -2.69       -60.36      -46.36      -17.9       
434.21875   -2.69       -64.56      -44.64      -17.67      
434.275     -2.68       -54.42      -46.41      -17.66      
434.33125   -2.73       -51.7       -44.74      -17.62      
434.3875    -2.7        -56.21      -45.93      -17.68      
434.44375   -2.69       -62.38      -41.97      -17.82      
434.5       -2.68       -61.35      -45.47      -17.68      
434.55625   -2.73       -62.44      -44.04      -17.66      
434.6125    -2.7        -65.96      -47.71      -17.72      
434.66875   -2.71       -55.1       -43.96      -17.73      
434.725     -2.7        -58.7       -44.67      -17.65      
434.78125   -2.68       -62.1       -46.48      -17.74      
434.8375    -2.67       -58.55      -45.06      -17.68      
434.89375   -2.7        -65.35      -45.27      -17.76      
434.95      -2.68       -54.12      -46.92      -17.7       
435.00625   -2.66       -60.01      -44.26      -17.8       
435.0625    -2.7        -60.48      -46.22      -17.68      
435.11875   -2.68       -62.16      -44.65      -17.6       
435.175     -2.65       -60.9       -47.6       -17.63      
435.23125   -2.66       -56.31      -44.48      -17.72      
435.2875    -2.66       -58.62      -46.66      -17.69      
435.34375   -2.69       -56.43      -45.46      -17.69      
435.4       -2.64       -59.76      -46.75      -17.66      
435.45625   -2.67       -62.46      -44.6       -17.68      
435.5125    -2.62       -56.53      -47.85      -17.67      
435.56875   -2.62       -60.71      -44.91      -17.77      
435.625     -2.59       -57.36      -45.28      -17.67      
435.68125   -2.6        -54.33      -46.84      -17.56      
435.7375    -2.65       -65.4       -45.4       -17.74      
435.79375   -2.65       -75.36      -45.56      -17.54      
435.85      -2.65       -63.77      -44.55      -17.61      
435.90625   -2.64       -68.95      -47.05      -17.68      
435.9625    -2.63       -58.77      -48.69      -17.5       
436.01875   -2.66       -70.03      -46.49      -17.63      
436.075     -2.6        -57.61      -48.61      -17.69      
436.13125   -2.62       -61.97      -47.15      -17.51      
436.1875    -2.63       -65.08      -47.11      -17.69      
436.24375   -2.61       -57.52      -47.02      -17.65      
436.3       -2.67       -60.23      -46.76      -17.67      
436.35625   -2.69       -63.24      -50.0       -17.74      
436.4125    -2.67       -61.93      -46.3       -17.55      
436.46875   -2.71       -65.63      -47.53      -17.72      
436.525     -2.66       -68.34      -51.01      -17.65      
436.58125   -2.72       -51.93      -48.95      -17.79      
436.6375    -2.71       -56.82      -47.63      -17.52      
436.69375   -2.71       -62.35      -47.86      -17.54      
436.75      -2.7        -56.53      -53.35      -17.53      
436.80625   -2.74       -62.45      -50.12      -17.69      
436.8625    -2.67       -53.0       -49.96      -17.49      
436.91875   -2.79       -62.88      -49.37      -17.63      
436.975     -2.77       -65.09      -49.2       -17.53      
437.03125   -2.86       -57.26      -51.52      -17.69      
437.0875    -2.85       -57.19      -51.63      -17.62      
437.14375   -2.85       -61.86      -50.99      -17.58      
437.2       -2.88       -75.93      -50.49      -17.61      
437.25625   -2.92       -73.71      -50.32      -17.63      
437.3125    -2.94       -60.56      -51.4       -17.45      
437.36875   -2.96       -57.72      -51.44      -17.62      
437.425     -2.99       -60.51      -55.27      -17.63      
437.48125   -2.95       -55.57      -50.07      -17.65      
437.5375    -2.94       -60.65      -53.08      -17.61      
437.59375   -2.95       -55.4       -47.27      -17.5       
437.65      -2.94       -55.29      -47.6       -17.64      
437.70625   -2.91       -58.88      -46.23      -17.78      
437.7625    -2.89       -53.08      -47.03      -17.67      
437.81875   -2.89       -59.01      -46.11      -17.45      
437.875     -2.89       -54.63      -47.06      -17.55      
437.93125   -2.88       -61.08      -43.44      -17.54      
437.9875    -2.85       -63.21      -44.07      -17.52      
438.04375   -2.87       -56.56      -46.0       -17.46      
438.1       -2.8        -55.78      -45.19      -17.54      
438.15625   -2.84       -53.83      -46.54      -17.49      
438.2125    -2.8        -56.31      -47.6       -17.6       
438.26875   -2.77       -69.36      -45.68      -17.64      
438.325     -2.75       -61.05      -46.12      -17.46      
438.38125   -2.74       -64.24      -47.4       -17.65      
438.4375    -2.69       -63.99      -44.03      -17.48      
438.49375   -2.64       -60.14      -44.12      -17.51      
438.55      -2.62       -56.81      -42.89      -17.66      
438.60625   -2.69       -59.17      -45.16      -17.56      
438.6625    -2.71       -54.13      -44.38      -17.46      
438.71875   -2.7        -52.71      -44.33      -17.49      
438.775     -2.65       -51.21      -43.54      -17.48      
438.83125   -2.72       -55.39      -46.99      -17.63      
438.8875    -2.64       -61.19      -44.82      -17.57      
438.94375   -2.66       -56.25      -44.1       -17.49      
439.0       -2.64       -54.24      -46.02      -17.56      
439.05625   -2.7        -66.82      -43.75      -17.6       
439.1125    -2.61       -56.2       -45.6       -17.53      
439.16875   -2.66       -72.34      -45.34      -17.51      
439.225     -2.66       -62.86      -46.06      -17.51      
439.28125   -2.67       -58.72      -43.35      -17.53      
439.3375    -2.68       -60.22      -44.56      -17.53      
439.39375   -2.67       -61.86      -45.45      -17.53      
439.45      -2.67       -59.34      -44.74      -17.51      
439.50625   -2.68       -54.89      -44.81      -17.57      
439.5625    -2.67       -58.39      -48.62      -17.45      
439.61875   -2.67       -57.26      -46.7       -17.58      
439.675     -2.64       -61.71      -44.41      -17.54      
439.73125   -2.72       -51.04      -48.24      -17.51      
439.7875    -2.68       -54.32      -47.59      -17.53      
439.84375   -2.74       -57.37      -47.19      -17.57      
439.9       -2.75       -52.9       -44.94      -17.59      
439.95625   -2.82       -58.44      -49.19      -17.51      
440.0125    -2.76       -63.29      -47.04      -17.35      
440.06875   -2.81       -55.19      -49.28      -17.46      
440.125     -2.79       -62.61      -45.95      -17.5       
440.18125   -2.8        -55.52      -45.78      -17.57      
440.2375    -2.89       -63.11      -44.56      -17.62      
440.29375   -2.89       -63.73      -43.27      -17.55      
440.35      -2.88       -64.14      -43.52      -17.46      
440.40625   -2.93       -64.78      -44.65      -17.56      
440.4625    -2.91       -75.14      -46.73      -17.46      
440.51875   -2.96       -57.72      -45.29      -17.51      
440.575     -2.95       -58.5       -44.57      -17.52      
440.63125   -2.92       -59.56      -45.11      -17.57      
440.6875    -2.9        -56.04      -44.38      -17.49      
440.74375   -2.93       -57.88      -43.61      -17.52      
440.8       -2.98       -62.11      -44.26      -17.57      
440.85625   -3.0        -54.43      -44.68      -17.51      
440.9125    -2.95       -53.12      -43.41      -17.35      
440.96875   -2.97       -51.63      -45.49      -17.52      
441.025     -2.92       -57.39      -41.48      -17.48      
441.08125   -2.91       -55.34      -44.22      -17.38      
441.1375    -2.92       -56.87      -41.67      -17.59      
441.19375   -2.87       -49.73      -43.26      -17.52      
441.25      -2.87       -62.4       -43.28      -17.51      
441.30625   -2.83       -66.21      -43.86      -17.49      
441.3625    -2.83       -62.48      -42.47      -17.35      
441.41875   -2.82       -53.91      -42.9       -17.55      
441.475     -2.79       -63.71      -42.88      -17.52      
441.53125   -2.76       -56.52      -42.99      -17.48      
441.5875    -2.84       -55.3       -41.88      -17.45      
441.64375   -2.8        -63.07      -43.26      -17.4       
441.7       -2.72       -78.67      -41.37      -17.49      
441.75625   -2.8        -62.13      -41.65      -17.38      
441.8125    -2.72       -70.41      -41.49      -17.41      
441.86875   -2.74       -67.18      -44.34      -17.45      
441.925     -2.73       -56.27      -41.58      -17.4       
441.98125   -2.74       -52.93      -42.91      -17.46      
442.0375    -2.71       -62.66      -41.28      -17.42      
442.09375   -2.73       -62.25      -43.89      -17.41      
442.15      -2.7        -56.21      -42.16      -17.48      
442.20625   -2.66       -65.58      -43.22      -17.5       
442.2625    -2.65       -58.36      -42.21      -17.28      
442.31875   -2.63       -62.24      -42.6       -17.46      
442.375     -2.7        -54.04      -41.63      -17.49      
442.43125   -2.68       -61.36      -42.97      -17.42      
442.4875    -2.68       -58.5       -43.13      -17.32      
442.54375   -2.66       -54.62      -44.97      -17.37      
442.6       -2.66       -57.75      -41.58      -17.41      
442.65625   -2.67       -72.01      -42.76      -17.35      
442.7125    -2.63       -69.52      -42.45      -17.35      
442.76875   -2.67       -59.95      -45.87      -17.41      
442.825     -2.66       -58.25      -41.74      -17.33      
442.88125   -2.64       -62.53      -44.67      -17.47      
442.9375    -2.62       -55.63      -40.36      -17.57      
442.99375   -2.61       -63.15      -42.02      -17.4       
443.05      -2.61       -57.44      -42.7       -17.35      
443.10625   -2.63       -58.53      -43.61      -17.51      
443.1625    -2.62       -60.76      -42.87      -17.41      
443.21875   -2.63       -55.88      -43.47      -17.49      
443.275     -2.59       -54.39      -42.74      -17.43      
443.33125   -2.63       -64.88      -42.69      -17.43      
443.3875    -2.6        -58.5       -42.41      -17.3       
443.44375   -2.66       -68.22      -44.43      -17.48      
443.5       -2.6        -64.59      -43.02      -17.32      
443.55625   -2.65       -59.25      -43.82      -17.43      
443.6125    -2.61       -53.23      -42.69      -17.33      
443.66875   -2.64       -70.79      -44.21      -17.24      
443.725     -2.64       -52.03      -42.49      -17.21      
443.78125   -2.66       -64.57      -46.55      -17.39      
443.8375    -2.66       -64.71      -42.31      -17.27      
443.89375   -2.61       -61.8       -44.25      -17.39      
443.95      -2.61       -71.86      -41.74      -17.35      
444.00625   -2.63       -55.97      -45.42      -17.34      
444.0625    -2.66       -61.38      -42.89      -17.25      
444.11875   -2.66       -58.38      -49.47      -17.49      
444.175     -2.67       -53.4       -42.32      -17.36      
444.23125   -2.64       -61.57      -43.27      -17.44      
444.2875    -2.66       -67.23      -44.06      -17.32      
444.34375   -2.66       -55.23      -44.66      -17.23      
444.4       -2.75       -55.14      -42.68      -17.39      
444.45625   -2.74       -60.22      -47.0       -17.51      
444.5125    -2.74       -58.86      -42.42      -17.24      
444.56875   -2.7        -52.28      -47.02      -17.4       
444.625     -2.69       -67.02      -44.36      -17.32      
444.68125   -2.68       -56.1       -45.74      -17.36      
444.7375    -2.67       -60.65      -45.29      -17.39      
444.79375   -2.68       -59.71      -46.61      -17.38      
444.85      -2.63       -59.61      -43.2       -17.46      
444.90625   -2.7        -55.09      -45.15      -17.4       
444.9625    -2.68       -62.93      -43.11      -17.36      
445.01875   -2.63       -51.52      -44.41      -17.39      
445.075     -2.62       -64.03      -45.0       -17.29      
445.13125   -2.6        -53.32      -44.42      -17.25      
445.1875    -2.58       -54.26      -43.39      -17.24      
445.24375   -2.57       -59.55      -43.79      -17.33      
445.3       -2.58       -58.82      -43.84      -17.28      
445.35625   -2.56       -56.76      -45.41      -17.34      
445.4125    -2.55       -62.5       -42.68      -17.23      
445.46875   -2.49       -61.41      -45.65      -17.35      
445.525     -2.53       -54.54      -43.38      -17.31      
445.58125   -2.47       -60.53      -46.48      -17.26      
445.6375    -2.47       -49.11      -42.36      -17.3       
445.69375   -2.48       -54.93      -45.51      -17.49      
445.75      -2.51       -60.58      -41.56      -17.16      
445.80625   -2.46       -59.76      -46.44      -17.17      
445.8625    -2.48       -57.12      -42.52      -17.34      
445.91875   -2.49       -53.99      -45.05      -17.43      
445.975     -2.45       -65.53      -43.88      -17.23      
446.03125   -2.47       -58.87      -46.6       -17.35      
446.0875    -2.48       -54.03      -42.61      -17.24      
446.14375   -2.41       -65.03      -47.24      -17.33      
446.2       -2.44       -57.31      -42.97      -17.4       
446.25625   -2.47       -59.14      -46.13      -17.31      
446.3125    -2.46       -58.3       -43.63      -17.34      
446.36875   -2.46       -58.64      -44.43      -17.25      
446.425     -2.43       -53.41      -43.38      -17.27      
446.48125   -2.44       -64.28      -45.9       -17.3       
446.5375    -2.46       -55.44      -42.3       -17.24      
446.59375   -2.46       -56.73      -45.4       -17.29      
446.65      -2.48       -63.93      -42.2       -17.22      
446.70625   -2.41       -73.84      -43.96      -17.32      
446.7625    -2.43       -71.97      -42.77      -17.31      
446.81875   -2.46       -62.07      -44.46      -17.23      
446.875     -2.41       -64.1       -42.71      -17.29      
446.93125   -2.44       -65.42      -44.86      -17.37      
446.9875    -2.44       -57.3       -41.7       -17.2       
447.04375   -2.46       -62.86      -45.29      -17.27      
447.1       -2.47       -62.28      -42.27      -17.28      
447.15625   -2.47       -62.62      -44.29      -17.28      
447.2125    -2.43       -58.79      -42.48      -17.14      
447.26875   -2.47       -58.42      -45.3       -17.31      
447.325     -2.52       -55.6       -42.96      -17.29      
447.38125   -2.45       -57.16      -43.49      -17.28      
447.4375    -2.43       -66.35      -42.98      -17.31      
447.49375   -2.45       -57.25      -42.37      -17.19      
447.55      -2.46       -73.9       -40.83      -17.23      
447.60625   -2.43       -61.97      -44.92      -17.32      
447.6625    -2.47       -66.38      -41.79      -17.13      
447.71875   -2.46       -54.11      -43.92      -17.16      
447.775     -2.48       -57.66      -42.67      -17.35      
447.83125   -2.47       -61.88      -43.92      -17.37      
447.8875    -2.45       -57.81      -44.1       -17.25      
447.94375   -2.45       -59.32      -44.54      -17.21      
448.0       -2.49       -54.67      -42.32      -17.2       
448.05625   -2.46       -61.08      -43.81      -17.19      
448.1125    -2.47       -54.53      -42.78      -17.1       
448.16875   -2.46       -58.67      -42.42      -17.34      
448.225     -2.43       -60.37      -44.53      -17.14      
448.28125   -2.45       -61.97      -42.49      -17.18      
448.3375    -2.41       -55.48      -42.02      -17.09      
448.39375   -2.4        -70.74      -42.69      -17.39      
448.45      -2.42       -60.12      -41.54      -17.28      
448.50625   -2.41       -60.44      -43.37      -17.33      
448.5625    -2.45       -59.45      -42.76      -17.16      
448.61875   -2.4        -55.02      -44.36      -17.24      
448.675     -2.44       -62.0       -42.4       -17.24      
448.73125   -2.41       -61.4       -43.92      -17.31      
448.7875    -2.41       -61.29      -42.09      -17.3       
448.84375   -2.38       -59.31      -44.78      -17.2       
448.9       -2.43       -61.63      -42.18      -17.22      
448.95625   -2.4        -56.44      -44.19      -17.27      
449.0125    -2.38       -57.99      -41.47      -17.23      
449.06875   -2.42       -63.6       -42.94      -17.28      
449.125     -2.42       -62.25      -42.32      -17.18      
449.18125   -2.36       -66.77      -42.71      -17.18      
449.2375    -2.42       -55.18      -41.73      -17.17      
449.29375   -2.39       -58.31      -42.82      -17.29      
449.35      -2.41       -61.7       -41.7       -17.14      
449.40625   -2.42       -58.96      -42.92      -17.27      
449.4625    -2.37       -55.6       -40.58      -17.2       
449.51875   -2.35       -60.43      -43.07      -17.12      
449.575     -2.42       -54.31      -40.46      -17.08      
449.63125   -2.36       -63.3       -42.75      -17.21      
449.6875    -2.39       -63.18      -41.06      -17.21      
449.74375   -2.41       -53.37      -42.63      -17.32      
449.8       -2.39       -54.5       -40.52      -17.09      
449.85625   -2.4        -57.82      -42.21      -17.13      
449.9125    -2.39       -66.93      -41.71      -17.25      
449.96875   -2.35       -59.12      -41.38      -17.19      
450.025     -2.39       -63.12      -42.49      -17.16      
450.08125   -2.37       -51.96      -42.28      -17.3       
450.1375    -2.35       -58.55      -41.51      -17.22      
450.19375   -2.41       -58.4       -42.42      -17.24      
450.25      -2.38       -60.95      -39.85      -17.14      
450.30625   -2.4        -52.64      -41.59      -17.2       
450.3625    -2.43       -60.36      -41.0       -17.11      
450.41875   -2.39       -60.65      -41.54      -17.2       
450.475     -2.39       -62.35      -41.36      -17.12      
450.53125   -2.38       -59.36      -41.22      -17.19      
450.5875    -2.39       -61.63      -41.37      -17.2       
450.64375   -2.38       -62.48      -41.21      -17.17      
450.7       -2.38       -63.89      -41.12      -17.04      
450.75625   -2.37       -60.09      -41.11      -17.26      
450.8125    -2.38       -53.46      -40.96      -17.1       
450.86875   -2.4        -56.84      -40.92      -17.21      
450.925     -2.38       -69.67      -40.68      -17.23      
450.98125   -2.38       -59.06      -40.59      -17.22      
451.0375    -2.39       -59.31      -40.07      -17.17      
451.09375   -2.41       -59.08      -41.95      -17.26      
451.15      -2.41       -65.17      -41.03      -17.12      
451.20625   -2.41       -60.29      -40.79      -17.26      
451.2625    -2.41       -58.36      -41.34      -17.16      
451.31875   -2.38       -57.16      -39.86      -17.16      
451.375     -2.42       -55.8       -40.23      -17.07      
451.43125   -2.36       -57.54      -40.84      -17.14      
451.4875    -2.4        -57.16      -40.78      -17.07      
451.54375   -2.43       -55.5       -40.0       -17.18      
451.6       -2.39       -55.46      -42.05      -17.14      
451.65625   -2.39       -61.43      -40.71      -17.25      
451.7125    -2.4        -62.53      -41.18      -16.98      
451.76875   -2.39       -59.14      -40.11      -17.16      
451.825     -2.39       -55.57      -40.38      -17.13      
451.88125   -2.43       -60.58      -39.96      -17.11      
451.9375    -2.41       -56.82      -40.65      -17.17      
451.99375   -2.37       -56.34      -40.09      -17.21      
452.05      -2.43       -61.4       -39.94      -17.16      
452.10625   -2.42       -58.24      -41.32      -17.11      
452.1625    -2.44       -69.83      -41.4       -17.14      
452.21875   -2.38       -58.47      -39.97      -17.17      
452.275     -2.42       -75.3       -39.91      -17.1       
452.33125   -2.41       -65.79      -40.77      -17.19      
452.3875    -2.44       -54.71      -40.42      -17.19      
452.44375   -2.41       -62.45      -40.74      -17.23      
452.5       -2.42       -56.13      -40.62      -17.07      
452.55625   -2.43       -50.31      -41.68      -17.15      
452.6125    -2.47       -60.68      -40.7       -17.09      
452.66875   -2.44       -62.69      -40.02      -17.17      
452.725     -2.46       -72.98      -40.7       -17.17      
452.78125   -2.44       -54.03      -40.92      -17.1       
452.8375    -2.43       -52.75      -40.04      -16.97      
452.89375   -2.43       -68.1       -40.37      -17.1       
452.95      -2.44       -59.62      -40.28      -17.06      
453.00625   -2.41       -62.46      -40.38      -17.08      
453.0625    -2.4        -63.15      -40.57      -17.05      
453.11875   -2.38       -62.52      -39.59      -17.2       
453.175     -2.44       -63.93      -40.73      -17.03      
453.23125   -2.43       -76.08      -39.1       -17.14      
453.2875    -2.48       -74.31      -39.82      -17.15      
453.34375   -2.42       -60.28      -39.18      -17.2       
453.4       -2.42       -62.51      -41.05      -17.07      
453.45625   -2.44       -55.51      -39.5       -17.1       
453.5125    -2.46       -53.28      -39.58      -17.07      
453.56875   -2.44       -62.69      -39.39      -17.0       
453.625     -2.45       -58.71      -39.77      -17.0       
453.68125   -2.46       -58.84      -39.17      -17.18      
453.7375    -2.44       -56.14      -40.61      -17.11      
453.79375   -2.46       -61.58      -38.49      -17.03      
453.85      -2.47       -60.23      -39.46      -17.0       
453.90625   -2.47       -69.97      -37.96      -17.08      
453.9625    -2.44       -56.26      -38.32      -16.97      
454.01875   -2.45       -57.74      -37.65      -17.12      
454.075     -2.48       -61.08      -38.06      -16.98      
454.13125   -2.44       -61.44      -36.69      -17.12      
454.1875    -2.5        -57.18      -37.14      -16.93      
454.24375   -2.48       -60.62      -36.72      -17.09      
454.3       -2.5        -57.32      -36.65      -16.89      
454.35625   -2.52       -55.1       -36.13      -16.99      
454.4125    -2.52       -66.63      -36.82      -17.16      
454.46875   -2.52       -67.37      -35.59      -17.18      
454.525     -2.55       -70.56      -36.43      -17.04      
454.58125   -2.55       -59.33      -35.66      -17.13      
454.6375    -2.57       -58.9       -35.46      -17.02      
454.69375   -2.62       -59.29      -35.08      -17.1       
454.75      -2.58       -60.91      -35.7       -16.97      
454.80625   -2.64       -61.5       -35.27      -16.93      
454.8625    -2.66       -58.04      -36.0       -16.92      
454.91875   -2.66       -59.16      -36.17      -17.17      
454.975     -2.67       -55.51      -36.02      -17.07      
455.03125   -2.69       -55.16      -37.08      -16.91      
455.0875    -2.71       -60.03      -34.83      -17.03      
455.14375   -2.76       -60.14      -36.3       -17.09      
455.2       -2.8        -62.78      -35.45      -17.02      
455.25625   -2.77       -61.43      -37.64      -17.1       
455.3125    -2.69       -64.8       -36.92      -16.83      
455.36875   -2.69       -55.94      -38.3       -16.97      
455.425     -2.62       -56.01      -38.18      -17.02      
455.48125   -2.64       -52.09      -39.06      -16.98      
455.5375    -2.65       -60.78      -39.39      -16.88      
455.59375   -2.59       -69.29      -39.03      -17.01      
455.65      -2.59       -81.06      -39.07      -16.94      
455.70625   -2.57       -57.22      -38.93      -16.95      
455.7625    -2.58       -65.72      -41.78      -16.89      
455.81875   -2.57       -69.33      -40.05      -17.01      
455.875     -2.55       -56.96      -40.45      -17.03      
455.93125   -2.58       -56.34      -41.37      -16.99      
455.9875    -2.56       -62.23      -42.69      -17.05      
456.04375   -2.56       -58.4       -42.33      -17.05      
456.1       -2.57       -58.05      -43.28      -16.93      
456.15625   -2.56       -58.31      -42.51      -17.0       
456.2125    -2.56       -60.37      -41.87      -17.03      
456.26875   -2.53       -63.49      -40.97      -16.98      
456.325     -2.53       -67.95      -44.26      -17.0       
456.38125   -2.53       -58.07      -42.22      -17.05      
456.4375    -2.57       -55.41      -43.63      -16.94      
456.49375   -2.54       -66.58      -42.13      -16.97      
456.55      -2.55       -59.09      -43.33      -17.02      
456.60625   -2.54       -57.6       -41.01      -16.86      
456.6625    -2.56       -66.36      -44.09      -16.95      
456.71875   -2.56       -63.7       -40.24      -16.99      
456.775     -2.58       -68.37      -42.01      -16.99      
456.83125   -2.59       -63.54      -40.83      -17.03      
456.8875    -2.55       -57.45      -40.79      -16.99      
456.94375   -2.62       -58.89      -39.2       -16.98      
457.0       -2.61       -67.0       -39.44      -17.1       
457.05625   -2.61       -54.51      -38.34      -17.07      
457.1125    -2.61       -60.41      -37.14      -17.02      
457.16875   -2.63       -61.74      -36.43      -17.02      
457.225     -2.65       -67.12      -36.19      -17.06      
457.28125   -2.69       -65.43      -34.32      -17.02      
457.3375    -2.71       -62.12      -33.83      -17.01      
457.39375   -2.73       -56.73      -32.53      -17.04      
457.45      -2.74       -57.43      -31.2       -16.95      
457.50625   -2.8        -54.61      -29.6       -16.97      
457.5625    -2.78       -55.55      -28.51      -16.9       
457.61875   -2.85       -55.76      -27.49      -16.9       
457.675     -2.87       -52.26      -26.07      -17.06      
457.73125   -2.94       -54.69      -25.22      -16.98      
457.7875    -2.96       -65.71      -24.01      -16.98      
457.84375   -3.04       -75.84      -22.99      -16.89      
457.9       -3.09       -60.81      -21.46      -16.98      
457.95625   -3.14       -52.78      -20.92      -16.91      
458.0125    -3.14       -58.06      -20.16      -16.83      
458.06875   -3.26       -62.77      -20.15      -17.08      
458.125     -3.29       -62.19      -20.03      -16.91      
458.18125   -3.32       -58.72      -20.12      -16.91      
458.2375    -3.29       -68.94      -20.16      -16.85      
458.29375   -3.39       -55.84      -20.44      -17.0       
458.35      -3.3        -60.48      -20.45      -16.82      
458.40625   -3.34       -63.43      -21.11      -16.87      
458.4625    -3.27       -60.8       -21.69      -16.95      
458.51875   -3.28       -52.26      -22.44      -16.87      
458.575     -3.14       -65.0       -23.32      -16.92      
458.63125   -3.1        -79.09      -24.19      -16.9       
458.6875    -3.04       -56.42      -25.05      -16.91      
458.74375   -2.99       -59.11      -25.8       -16.92      
458.8       -2.94       -60.57      -26.94      -16.82      
458.85625   -2.92       -56.62      -27.53      -16.99      
458.9125    -2.85       -54.9       -28.64      -16.81      
458.96875   -2.84       -57.26      -29.25      -16.93      
459.025     -2.78       -63.6       -30.67      -16.97      
459.08125   -2.78       -59.37      -30.81      -16.89      
459.1375    -2.74       -58.89      -32.81      -16.96      
459.19375   -2.8        -79.03      -33.5       -16.96      
459.25      -2.75       -59.4       -34.9       -16.87      
459.30625   -2.79       -54.6       -35.35      -16.94      
459.3625    -2.74       -61.21      -37.05      -16.89      
459.41875   -2.77       -67.4       -37.94      -17.05      
459.475     -2.74       -63.78      -39.12      -16.98      
459.53125   -2.8        -57.99      -40.29      -16.92      
459.5875    -2.75       -57.76      -42.85      -16.88      
459.64375   -2.77       -59.02      -41.77      -16.95      
459.7       -2.78       -53.76      -43.86      -16.86      
459.75625   -2.78       -64.35      -42.43      -16.92      
459.8125    -2.81       -52.88      -44.84      -16.95      
459.86875   -2.82       -61.02      -40.16      -16.9       
459.925     -2.83       -61.16      -37.72      -16.83      
459.98125   -2.89       -61.73      -36.6       -17.08      
460.0375    -2.89       -66.6       -33.88      -17.02      
460.09375   -2.97       -56.42      -31.82      -16.96      
460.15      -2.97       -57.94      -29.42      -16.93      
460.20625   -3.09       -60.62      -27.69      -16.86      
460.2625    -3.08       -58.37      -24.92      -16.78      
460.31875   -3.25       -60.72      -23.06      -16.81      
460.375     -3.39       -55.1       -20.73      -16.75      
460.43125   -3.58       -56.76      -18.81      -16.97      
460.4875    -3.73       -60.76      -16.59      -16.75      
460.54375   -4.03       -56.62      -14.7       -16.96      
460.6       -4.24       -66.33      -12.78      -16.92      
460.65625   -4.55       -58.77      -11.49      -16.86      
460.7125    -4.73       -54.85      -10.59      -16.85      
460.76875   -4.97       -65.64      -10.41      -16.93      
460.825     -5.03       -57.24      -10.98      -16.83      
460.88125   -4.78       -64.43      -12.17      -17.0       
460.9375    -4.38       -64.5       -14.2       -16.89      
460.99375   -3.93       -64.09      -16.46      -16.86      
461.05      -3.56       -68.58      -19.04      -16.82      
461.10625   -3.32       -55.25      -21.73      -17.0       
461.1625    -3.19       -62.2       -25.0       -16.8       
461.21875   -3.09       -82.35      -28.17      -17.02      
461.275     -2.99       -55.44      -31.3       -16.9       
461.33125   -2.99       -64.06      -34.5       -16.77      
461.3875    -2.93       -71.95      -37.88      -16.88      
461.44375   -2.96       -61.46      -38.21      -16.88      
461.5       -2.95       -57.04      -37.89      -16.9       
461.55625   -2.94       -54.26      -36.07      -16.91      
461.6125    -2.96       -54.94      -33.04      -16.94      
461.66875   -2.99       -55.08      -30.77      -16.87      
461.725     -3.01       -63.86      -28.24      -16.75      
461.78125   -3.07       -56.79      -26.41      -16.84      
461.8375    -3.09       -76.97      -23.71      -16.76      
461.89375   -3.16       -63.88      -21.79      -16.83      
461.95      -3.2        -63.06      -19.51      -16.87      
462.00625   -3.33       -56.88      -17.63      -16.88      
462.0625    -3.42       -51.19      -15.72      -16.79      
462.11875   -3.53       -59.15      -13.89      -16.92      
462.175     -3.71       -58.67      -12.15      -16.87      
462.23125   -3.9        -58.61      -10.47      -16.82      
462.2875    -4.16       -67.91      -8.74       -16.85      
462.34375   -4.48       -61.64      -7.21       -16.9       
462.4       -4.92       -62.13      -5.61       -16.91      
462.45625   -5.46       -60.13      -4.2        -16.95      
462.5125    -6.23       -55.52      -2.81       -16.81      
462.56875   -7.07       -61.37      -1.53       -16.8       
462.625     -8.33       -58.8       -0.38       -16.75      
462.68125   -9.77       -55.38      0.6         -16.81      
462.7375    -11.79      -72.33      1.45        -16.87      
462.79375   -14.16      -57.87      2.17        -16.8       
462.85      -17.2       -61.72      2.69        -16.71      
462.90625   -20.28      -59.31      3.13        -16.87      
462.9625    -21.74      -75.04      3.44        -16.75      
463.01875   -20.64      -55.61      3.73        -16.73      
463.075     -18.57      -66.6       3.91        -16.8       
463.13125   -17.21      -66.01      4.03        -16.75      
463.1875    -15.91      -72.59      4.2         -16.86      
463.24375   -15.25      -65.08      4.34        -16.8       
463.3       -14.76      -50.59      4.42        -16.7       
463.35625   -14.36      -55.89      4.57        -16.82      
463.4125    -14.19      -52.35      4.61        -16.75      
463.46875   -14.3       -71.04      4.72        -16.74      
463.525     -14.22      -66.91      4.79        -16.72      
463.58125   -14.51      -55.03      4.88        -16.79      
463.6375    -14.72      -63.47      5.01        -16.83      
463.69375   -15.18      -63.46      5.1         -16.81      
463.75      -15.54      -63.95      5.13        -16.71      
463.80625   -16.11      -56.27      5.21        -16.81      
463.8625    -16.55      -62.8       5.28        -16.79      
463.91875   -17.25      -57.02      5.38        -16.89      
463.975     -17.69      -59.81      5.42        -16.89      
464.03125   -18.33      -55.21      5.5         -16.85      
464.0875    -18.76      -62.49      5.55        -16.74      
464.14375   -19.21      -56.15      5.58        -16.84      
464.2       -19.44      -57.71      5.59        -16.83      
464.25625   -19.79      -58.54      5.7         -16.84      
464.3125    -19.98      -62.12      5.69        -16.77      
464.36875   -19.83      -62.22      5.77        -16.77      
464.425     -19.44      -54.25      5.79        -16.81      
464.48125   -19.04      -68.07      5.84        -16.79      
464.5375    -18.47      -58.66      5.83        -16.74      
464.59375   -18.18      -57.91      5.84        -16.77      
464.65      -17.53      -55.0       5.84        -16.73      
464.70625   -17.09      -53.06      5.85        -16.8       
464.7625    -16.5       -53.26      5.91        -16.66      
464.81875   -16.1       -61.93      5.87        -16.76      
464.875     -15.58      -53.93      5.86        -16.61      
464.93125   -15.22      -64.52      5.89        -16.79      
464.9875    -14.76      -60.91      5.89        -16.69      
465.04375   -14.56      -56.9       5.89        -16.88      
465.1       -14.24      -61.52      5.86        -16.76      
465.15625   -13.89      -56.42      5.89        -16.89      
465.2125    -13.63      -60.43      5.86        -16.73      
465.26875   -13.55      -59.15      5.89        -16.64      
465.325     -13.16      -59.67      5.86        -16.74      
465.38125   -13.14      -59.6       5.85        -16.79      
465.4375    -12.95      -57.43      5.87        -16.86      
465.49375   -12.79      -64.06      5.88        -16.69      
465.55      -12.64      -63.37      5.89        -16.64      
465.60625   -12.66      -59.74      5.87        -16.85      
465.6625    -12.41      -67.42      5.85        -16.83      
465.71875   -12.51      -57.73      5.86        -16.88      
465.775     -12.31      -54.6       5.87        -16.77      
465.83125   -12.29      -53.71      5.86        -16.76      
465.8875    -12.24      -58.57      5.87        -16.67      
465.94375   -12.26      -62.18      5.87        -16.85      
466.0       -12.15      -69.88      5.88        -16.68      
466.05625   -12.15      -70.57      5.87        -16.79      
466.1125    -12.11      -53.33      5.89        -16.75      
466.16875   -12.17      -67.07      5.94        -16.8       
466.225     -12.26      -56.19      5.9         -16.71      
466.28125   -12.2       -62.6       5.9         -16.74      
466.3375    -12.18      -64.37      5.93        -16.7       
466.39375   -12.28      -58.92      5.94        -16.72      
466.45      -12.21      -54.77      5.98        -16.73      
466.50625   -12.37      -65.11      5.94        -16.81      
466.5625    -12.41      -57.68      5.99        -16.77      
466.61875   -12.52      -59.76      6.0         -16.71      
466.675     -12.44      -58.74      5.95        -16.79      
466.73125   -12.65      -60.22      5.98        -16.9       
466.7875    -12.59      -72.66      6.03        -16.72      
466.84375   -12.76      -66.34      6.02        -16.7       
466.9       -12.81      -62.72      6.01        -16.67      
466.95625   -12.9       -62.04      6.03        -16.75      
467.0125    -12.95      -57.53      6.06        -16.63      
467.06875   -13.1       -57.21      6.05        -16.73      
467.125     -13.23      -55.22      6.03        -16.72      
467.18125   -13.3       -56.85      6.08        -16.83      
467.2375    -13.38      -59.32      6.08        -16.78      
467.29375   -13.57      -62.18      6.13        -16.88      
467.35      -13.6       -52.87      6.15        -16.78      
467.40625   -13.67      -61.63      6.12        -16.75      
467.4625    -13.72      -62.81      6.17        -16.6       
467.51875   -13.87      -68.07      6.15        -16.73      
467.575     -13.94      -60.04      6.17        -16.69      
467.63125   -13.99      -55.26      6.19        -16.88      
467.6875    -13.97      -60.04      6.19        -16.65      
467.74375   -14.21      -61.52      6.2         -16.67      
467.8       -14.18      -66.32      6.25        -16.74      
467.85625   -14.33      -55.95      6.21        -16.79      
467.9125    -14.37      -62.0       6.24        -16.62      
467.96875   -14.33      -61.67      6.23        -16.72      
468.025     -14.52      -59.74      6.23        -16.65      
468.08125   -14.56      -63.86      6.22        -16.67      
468.1375    -14.54      -56.33      6.25        -16.66      
468.19375   -14.69      -55.71      6.22        -16.73      
468.25      -14.67      -61.77      6.23        -16.69      
468.30625   -14.78      -60.58      6.23        -16.85      
468.3625    -14.78      -58.97      6.21        -16.6       
468.41875   -14.88      -58.14      6.26        -16.67      
468.475     -14.84      -60.43      6.22        -16.64      
468.53125   -14.91      -55.67      6.19        -16.75      
468.5875    -14.89      -56.02      6.25        -16.69      
468.64375   -14.88      -58.73      6.24        -16.74      
468.7       -14.93      -54.91      6.21        -16.6       
468.75625   -15.0       -66.91      6.2         -16.75      
468.8125    -14.87      -58.84      6.23        -16.68      
468.86875   -14.92      -61.83      6.26        -16.73      
468.925     -14.98      -53.34      6.23        -16.72      
468.98125   -14.99      -60.5       6.22        -16.82      
469.0375    -15.04      -58.19      6.25        -16.73      
469.09375   -15.0       -62.76      6.22        -16.62      
469.15      -14.91      -62.07      6.23        -16.61      
469.20625   -15.0       -60.18      6.2         -16.75      
469.2625    -14.89      -53.83      6.19        -16.7       
469.31875   -14.96      -58.3       6.2         -16.73      
469.375     -14.96      -53.58      6.19        -16.57      
469.43125   -15.02      -64.21      6.22        -16.79      
469.4875    -14.88      -60.68      6.2         -16.66      
469.54375   -14.98      -54.75      6.2         -16.65      
469.6       -14.98      -57.67      6.15        -16.68      
469.65625   -14.96      -57.02      6.2         -16.76      
469.7125    -14.89      -64.29      6.16        -16.8       
469.76875   -14.93      -59.52      6.16        -16.68      
469.825     -14.87      -57.79      6.17        -16.6       
469.88125   -15.0       -52.9       6.15        -16.67      
469.9375    -14.86      -62.06      6.15        -16.61      
469.99375   -14.94      -53.13      6.18        -16.69      
470.05      -14.85      -61.23      6.11        -16.55      
470.10625   -15.03      -61.21      6.13        -16.73      
470.1625    -15.11      -67.83      6.12        -16.56      
470.21875   -15.19      -60.58      6.14        -16.64      
470.275     -15.08      -54.87      6.16        -16.7       
470.33125   -15.25      -66.51      6.18        -16.69      
470.3875    -15.29      -62.27      6.16        -16.61      
470.44375   -15.37      -55.08      6.2         -16.76      
470.5       -15.23      -50.94      6.16        -16.57      
470.55625   -15.36      -64.84      6.16        -16.71      
470.6125    -15.43      -58.72      6.16        -16.62      
470.66875   -15.48      -58.31      6.17        -16.72      
470.725     -15.48      -67.35      6.15        -16.66      
470.78125   -15.58      -64.99      6.23        -16.79      
470.8375    -15.53      -61.33      6.18        -16.59      
470.89375   -15.72      -68.57      6.16        -16.49      
470.95      -15.8       -62.04      6.13        -16.66      
471.00625   -15.91      -56.89      6.16        -16.69      
471.0625    -15.97      -57.26      6.15        -16.58      
471.11875   -16.02      -62.46      6.17        -16.71      
471.175     -15.99      -61.83      6.14        -16.65      
471.23125   -16.16      -58.2       6.16        -16.64      
471.2875    -16.11      -57.72      6.14        -16.68      
471.34375   -16.23      -55.19      6.16        -16.75      
471.4       -16.31      -66.26      6.16        -16.67      
471.45625   -16.29      -68.0       6.16        -16.73      
471.5125    -16.34      -56.52      6.16        -16.75      
471.56875   -16.31      -61.9       6.2         -16.69      
471.625     -16.41      -55.28      6.19        -16.62      
471.68125   -16.48      -56.7       6.18        -16.74      
471.7375    -16.5       -58.42      6.16        -16.62      
471.79375   -16.61      -57.95      6.19        -16.63      
471.85      -16.59      -57.82      6.21        -16.64      
471.90625   -16.65      -71.59      6.19        -16.59      
471.9625    -16.59      -60.5       6.18        -16.68      
472.01875   -16.64      -54.1       6.21        -16.72      
472.075     -16.56      -60.39      6.19        -16.68      
472.13125   -16.65      -58.54      6.22        -16.68      
472.1875    -16.66      -70.64      6.17        -16.59      
472.24375   -16.68      -59.02      6.23        -16.64      
472.3       -16.69      -55.64      6.17        -16.6       
472.35625   -16.7       -54.88      6.23        -16.78      
472.4125    -16.6       -64.78      6.22        -16.62      
472.46875   -16.81      -63.41      6.23        -16.66      
472.525     -16.66      -60.43      6.21        -16.59      
472.58125   -16.73      -55.47      6.21        -16.55      
472.6375    -16.71      -75.99      6.22        -16.6       
472.69375   -16.61      -55.49      6.22        -16.6       
472.75      -16.42      -64.36      6.2         -16.72      
472.80625   -16.36      -65.97      6.25        -16.64      
472.8625    -16.25      -57.59      6.23        -16.58      
472.91875   -16.27      -54.75      6.24        -16.65      
472.975     -16.05      -54.21      6.24        -16.53      
473.03125   -15.94      -57.36      6.25        -16.69      
473.0875    -15.69      -64.93      6.25        -16.51      
473.14375   -15.79      -59.2       6.25        -16.65      
473.2       -15.58      -64.01      6.23        -16.6       
473.25625   -15.45      -55.07      6.26        -16.74      
473.3125    -15.31      -54.92      6.22        -16.57      
473.36875   -15.34      -62.06      6.22        -16.61      
473.425     -15.12      -63.8       6.2         -16.67      
473.48125   -15.02      -68.9       6.26        -16.65      
473.5375    -14.94      -65.02      6.19        -16.7       
473.59375   -14.79      -62.17      6.23        -16.62      
473.65      -14.7       -70.75      6.2         -16.59      
473.70625   -14.59      -60.17      6.2         -16.61      
473.7625    -14.46      -63.15      6.21        -16.44      
473.81875   -14.41      -57.49      6.19        -16.63      
473.875     -14.2       -54.09      6.18        -16.63      
473.93125   -14.12      -55.51      6.16        -16.68      
473.9875    -13.92      -57.87      6.16        -16.5       
474.04375   -13.87      -58.01      6.16        -16.52      
474.1       -13.65      -65.06      6.17        -16.63      
474.15625   -13.66      -57.08      6.2         -16.58      
474.2125    -13.42      -66.36      6.14        -16.64      
474.26875   -13.32      -58.18      6.11        -16.69      
474.325     -13.21      -57.66      6.15        -16.68      
474.38125   -13.05      -57.21      6.11        -16.74      
474.4375    -12.85      -53.96      6.14        -16.6       
474.49375   -12.77      -52.18      6.09        -16.66      
474.55      -12.59      -58.82      6.11        -16.44      
474.60625   -12.56      -61.31      6.1         -16.61      
474.6625    -12.38      -60.1       6.06        -16.63      
474.71875   -12.35      -58.99      6.08        -16.71      
474.775     -12.19      -60.61      6.04        -16.63      
474.83125   -12.03      -56.05      6.09        -16.58      
474.8875    -11.95      -62.05      6.08        -16.59      
474.94375   -11.92      -59.52      6.06        -16.75      
475.0       -11.7       -58.61      6.02        -16.55      
475.05625   -11.63      -54.53      6.05        -16.52      
475.1125    -11.57      -59.93      5.99        -16.53      
475.16875   -11.48      -57.77      5.98        -16.65      
475.225     -11.37      -55.56      5.97        -16.56      
475.28125   -11.29      -57.51      5.96        -16.63      
475.3375    -11.18      -58.68      5.95        -16.48      
475.39375   -11.04      -89.1       5.94        -16.59      
475.45      -11.06      -56.66      5.91        -16.56      
475.50625   -10.9       -57.09      5.94        -16.49      
475.5625    -10.83      -58.35      5.87        -16.64      
475.61875   -10.76      -59.13      5.86        -16.57      
475.675     -10.67      -67.0       5.87        -16.51      
475.73125   -10.59      -53.25      5.83        -16.57      
475.7875    -10.5       -61.13      5.84        -16.61      
475.84375   -10.43      -57.09      5.82        -16.64      
475.9       -10.34      -61.74      5.83        -16.6       
475.95625   -10.28      -54.98      5.82        -16.56      
476.0125    -10.17      -59.67      5.84        -16.58      
476.06875   -10.13      -76.82      5.77        -16.59      
476.125     -10.14      -58.26      5.78        -16.57      
476.18125   -10.02      -56.31      5.8         -16.55      
476.2375    -9.95       -52.4       5.76        -16.51      
476.29375   -9.96       -65.97      5.78        -16.64      
476.35      -9.87       -53.25      5.78        -16.65      
476.40625   -9.77       -54.14      5.78        -16.5       
476.4625    -9.81       -51.41      5.73        -16.61      
476.51875   -9.85       -59.13      5.74        -16.68      
476.575     -9.71       -58.95      5.71        -16.61      
476.63125   -9.71       -56.85      5.71        -16.6       
476.6875    -9.62       -54.12      5.69        -16.45      
476.74375   -9.66       -56.23      5.63        -16.52      
476.8       -9.67       -59.6       5.64        -16.52      
476.85625   -9.55       -55.95      5.65        -16.62      
476.9125    -9.56       -56.68      5.63        -16.48      
476.96875   -9.47       -58.06      5.63        -16.49      
477.025     -9.42       -60.76      5.62        -16.53      
477.08125   -9.4        -65.96      5.61        -16.54      
477.1375    -9.35       -51.14      5.58        -16.59      
477.19375   -9.33       -59.55      5.61        -16.65      
477.25      -9.31       -60.89      5.6         -16.55      
477.30625   -9.33       -63.45      5.58        -16.48      
477.3625    -9.32       -57.92      5.58        -16.57      
477.41875   -9.29       -62.54      5.59        -16.54      
477.475     -9.28       -58.97      5.59        -16.61      
477.53125   -9.22       -54.97      5.6         -16.49      
477.5875    -9.25       -59.33      5.59        -16.49      
477.64375   -9.26       -58.65      5.6         -16.6       
477.7       -9.34       -57.84      5.59        -16.39      
477.75625   -9.25       -63.1       5.5         -16.58      
477.8125    -9.28       -53.65      5.55        -16.54      
477.86875   -9.21       -56.4       5.54        -16.62      
477.925     -9.31       -57.8       5.56        -16.64      
477.98125   -9.28       -57.1       5.52        -16.62      
478.0375    -9.31       -68.52      5.55        -16.53      
478.09375   -9.27       -63.3       5.53        -16.47      
478.15      -9.33       -64.65      5.54        -16.55      
478.20625   -9.36       -57.13      5.53        -16.47      
478.2625    -9.36       -60.26      5.57        -16.55      
478.31875   -9.35       -60.21      5.51        -16.62      
478.375     -9.37       -56.32      5.54        -16.49      
478.43125   -9.38       -60.39      5.55        -16.54      
478.4875    -9.47       -55.53      5.55        -16.51      
478.54375   -9.44       -58.6       5.53        -16.46      
478.6       -9.48       -53.64      5.58        -16.57      
478.65625   -9.49       -56.55      5.56        -16.61      
478.7125    -9.53       -57.97      5.54        -16.48      
478.76875   -9.53       -58.2       5.6         -16.55      
478.825     -9.64       -57.72      5.59        -16.5       
478.88125   -9.63       -58.95      5.57        -16.55      
478.9375    -9.69       -58.73      5.62        -16.5       
478.99375   -9.73       -59.5       5.61        -16.43      
479.05      -9.79       -57.49      5.62        -16.49      
479.10625   -9.84       -63.49      5.59        -16.51      
479.1625    -9.87       -61.57      5.6         -16.47      
479.21875   -9.84       -56.03      5.58        -16.66      
479.275     -9.97       -55.68      5.63        -16.41      
479.33125   -9.93       -63.58      5.62        -16.5       
479.3875    -10.09      -56.01      5.6         -16.43      
479.44375   -10.09      -74.61      5.6         -16.54      
479.5       -10.21      -54.4       5.62        -16.52      
479.55625   -10.23      -65.07      5.59        -16.55      
479.6125    -10.31      -65.39      5.61        -16.55      
479.66875   -10.26      -62.48      5.61        -16.49      
479.725     -10.37      -64.25      5.62        -16.55      
479.78125   -10.37      -61.78      5.66        -16.58      
479.8375    -10.49      -53.36      5.69        -16.55      
479.89375   -10.58      -55.11      5.66        -16.47      
479.95      -10.67      -58.3       5.7         -16.53      
480.00625   -10.69      -53.98      5.67        -16.61      
480.0625    -10.81      -69.56      5.74        -16.47      
480.11875   -10.85      -54.3       5.72        -16.61      
480.175     -10.97      -60.64      5.75        -16.57      
480.23125   -11.02      -52.37      5.76        -16.63      
480.2875    -11.11      -64.41      5.75        -16.54      
480.34375   -11.14      -55.15      5.77        -16.54      
480.4       -11.36      -60.74      5.81        -16.62      
480.45625   -11.34      -54.67      5.8         -16.57      
480.5125    -11.47      -58.19      5.81        -16.46      
480.56875   -11.6       -63.88      5.82        -16.48      
480.625     -11.75      -65.93      5.85        -16.37      
480.68125   -11.82      -54.44      5.81        -16.55      
480.7375    -11.98      -56.92      5.86        -16.46      
480.79375   -12.03      -58.26      5.83        -16.49      
480.85      -12.24      -58.53      5.86        -16.54      
480.90625   -12.28      -65.39      5.83        -16.59      
480.9625    -12.54      -58.41      5.86        -16.43      
481.01875   -12.65      -57.81      5.84        -16.6       
481.075     -12.8       -59.21      5.88        -16.5       
481.13125   -12.83      -60.5       5.86        -16.54      
481.1875    -12.93      -58.06      5.87        -16.53      
481.24375   -13.0       -55.38      5.89        -16.58      
481.3       -13.17      -75.37      5.94        -16.48      
481.35625   -13.22      -62.06      5.95        -16.45      
481.4125    -13.49      -59.44      5.98        -16.43      
481.46875   -13.49      -57.49      5.98        -16.57      
481.525     -13.71      -58.73      5.95        -16.35      
481.58125   -13.62      -78.34      5.98        -16.55      
481.6375    -13.86      -59.37      6.01        -16.39      
481.69375   -13.89      -61.72      5.96        -16.51      
481.75      -14.11      -69.17      6.0         -16.52      
481.80625   -14.07      -83.17      5.98        -16.61      
481.8625    -14.16      -61.75      6.01        -16.43      
481.91875   -14.16      -60.21      5.99        -16.49      
481.975     -14.34      -55.43      6.0         -16.34      
482.03125   -14.37      -64.28      6.0         -16.56      
482.0875    -14.4       -59.18      5.99        -16.53      
482.14375   -14.48      -61.26      5.98        -16.44      
482.2       -14.67      -66.23      5.97        -16.42      
482.25625   -14.6       -56.79      6.01        -16.61      
482.3125    -14.75      -54.94      5.99        -16.45      
482.36875   -14.69      -67.46      5.94        -16.52      
482.425     -14.73      -59.92      5.92        -16.45      
482.48125   -14.66      -70.58      5.93        -16.53      
482.5375    -14.72      -53.95      5.89        -16.55      
482.59375   -14.67      -58.67      5.9         -16.47      
482.65      -14.74      -67.56      5.9         -16.47      
482.70625   -14.69      -55.51      5.89        -16.5       
482.7625    -14.88      -61.02      5.91        -16.54      
482.81875   -14.73      -61.88      5.94        -16.45      
482.875     -14.78      -69.95      5.92        -16.55      
482.93125   -14.56      -56.27      5.9         -16.44      
482.9875    -14.72      -63.75      5.9         -16.55      
483.04375   -14.45      -60.11      5.87        -16.54      
483.1       -14.5       -66.76      5.89        -16.57      
483.15625   -14.38      -58.81      5.86        -16.49      
483.2125    -14.43      -60.7       5.84        -16.47      
483.26875   -14.27      -56.52      5.82        -16.56      
483.325     -14.34      -56.68      5.82        -16.38      
483.38125   -14.16      -57.85      5.8         -16.58      
483.4375    -14.22      -54.92      5.8         -16.6       
483.49375   -14.06      -64.05      5.78        -16.53      
483.55      -14.11      -58.77      5.79        -16.5       
483.60625   -13.95      -56.38      5.77        -16.53      
483.6625    -13.98      -59.09      5.77        -16.37      
483.71875   -13.8       -58.71      5.71        -16.6       
483.775     -13.86      -65.27      5.68        -16.43      
483.83125   -13.67      -57.44      5.66        -16.38      
483.8875    -13.74      -53.0       5.65        -16.48      
483.94375   -13.45      -61.75      5.63        -16.5       
484.0       -13.55      -62.5       5.6         -16.48      
484.05625   -13.33      -64.3       5.57        -16.5       
484.1125    -13.41      -62.62      5.59        -16.53      
484.16875   -13.31      -59.36      5.6         -16.58      
484.225     -13.37      -58.85      5.61        -16.51      
484.28125   -13.28      -55.45      5.59        -16.68      
484.3375    -13.38      -60.55      5.57        -16.49      
484.39375   -13.13      -57.04      5.57        -16.43      
484.45      -13.24      -55.34      5.52        -16.49      
484.50625   -13.13      -65.35      5.51        -16.53      
484.5625    -13.19      -57.17      5.51        -16.46      
484.61875   -13.11      -69.59      5.47        -16.56      
484.675     -13.24      -59.84      5.49        -16.53      
484.73125   -13.18      -54.88      5.48        -16.59      
484.7875    -13.3       -54.8       5.44        -16.45      
484.84375   -13.35      -58.16      5.42        -16.51      
484.9       -13.53      -55.84      5.44        -16.55      
484.95625   -13.56      -56.68      5.39        -16.59      
485.0125    -13.83      -57.56      5.4         -16.37      
485.06875   -13.69      -53.56      5.41        -16.52      
485.125     -13.89      -63.5       5.37        -16.45      
485.18125   -13.93      -55.49      5.35        -16.56      
485.2375    -14.11      -60.51      5.32        -16.45      
485.29375   -14.06      -55.33      5.34        -16.4       
485.35      -14.14      -52.15      5.32        -16.57      
485.40625   -14.17      -57.25      5.25        -16.47      
485.4625    -14.39      -65.24      5.23        -16.45      
485.51875   -14.43      -58.33      5.26        -16.41      
485.575     -14.74      -59.88      5.24        -16.52      
485.63125   -14.79      -54.65      5.27        -16.37      
485.6875    -15.16      -66.07      5.29        -16.49      
485.74375   -15.27      -54.47      5.3         -16.55      
485.8       -15.55      -55.5       5.31        -16.53      
485.85625   -15.8       -56.43      5.25        -16.49      
485.9125    -16.01      -63.01      5.25        -16.54      
485.96875   -16.33      -62.02      5.25        -16.56      
486.025     -16.74      -66.24      5.18        -16.49      
486.08125   -16.91      -63.62      5.15        -16.49      
486.1375    -17.52      -54.29      5.16        -16.43      
486.19375   -17.74      -65.61      5.11        -16.49      
486.25      -18.49      -68.43      5.12        -16.53      
486.30625   -18.64      -58.1       5.08        -16.6       
486.3625    -19.54      -55.79      5.04        -16.61      
486.41875   -20.1       -57.51      5.02        -16.54      
486.475     -20.77      -61.94      5.04        -16.43      
486.53125   -21.72      -54.5       5.01        -16.32      
486.5875    -22.59      -57.98      4.99        -16.53      
486.64375   -23.9       -56.86      4.96        -16.61      
486.7       -25.45      -63.94      4.91        -16.44      
486.75625   -26.56      -59.31      4.87        -16.49      
486.8125    -28.72      -55.74      4.86        -16.47      
486.86875   -30.01      -64.77      4.82        -16.68      
486.925     -32.4       -56.22      4.76        -16.48      
486.98125   -31.67      -56.31      4.71        -16.51      
487.0375    -30.26      -53.45      4.66        -16.48      
487.09375   -27.92      -54.7       4.57        -16.45      
487.15      -26.26      -69.11      4.55        -16.38      
487.20625   -24.28      -61.12      4.5         -16.58      
487.2625    -23.0       -72.72      4.44        -16.45      
487.31875   -21.48      -56.16      4.4         -16.4       
487.375     -20.55      -64.73      4.36        -16.41      
487.43125   -19.64      -59.98      4.29        -16.41      
487.4875    -18.57      -59.77      4.25        -16.5       
487.54375   -17.78      -66.46      4.15        -16.5       
487.6       -16.86      -60.39      4.11        -16.37      
487.65625   -16.1       -63.31      4.05        -16.65      
487.7125    -15.21      -68.46      4.01        -16.51      
487.76875   -14.54      -59.16      3.9         -16.52      
487.825     -13.9       -59.18      3.81        -16.44      
487.88125   -13.15      -54.49      3.75        -16.54      
487.9375    -12.61      -59.6       3.68        -16.61      
487.99375   -11.96      -65.53      3.55        -16.43      
488.05      -11.51      -63.26      3.41        -16.59      
488.10625   -10.98      -62.89      3.3         -16.57      
488.1625    -10.61      -64.87      3.19        -16.4       
488.21875   -10.24      -54.39      3.02        -16.42      
488.275     -9.99       -69.24      2.94        -16.39      
488.33125   -9.61       -68.04      2.74        -16.54      
488.3875    -9.32       -61.66      2.65        -16.38      
488.44375   -8.88       -58.97      2.49        -16.62      
488.5       -8.61       -56.29      2.39        -16.44      
488.55625   -8.23       -65.28      2.22        -16.55      
488.6125    -7.96       -58.56      2.12        -16.53      
488.66875   -7.66       -63.81      1.96        -16.57      
488.725     -7.39       -59.69      1.83        -16.52      
488.78125   -7.11       -66.27      1.61        -16.45      
488.8375    -6.94       -60.32      1.45        -16.6       
488.89375   -6.74       -51.46      1.26        -16.52      
488.95      -6.54       -65.31      1.08        -16.43      
489.00625   -6.29       -61.05      0.87        -16.51      
489.0625    -6.21       -69.29      0.71        -16.53      
489.11875   -5.94       -53.69      0.51        -16.57      
489.175     -5.84       -59.89      0.35        -16.45      
489.23125   -5.62       -53.81      0.12        -16.58      
489.2875    -5.49       -63.23      -0.06       -16.46      
489.34375   -5.29       -58.15      -0.26       -16.52      
489.4       -5.18       -66.34      -0.44       -16.44      
489.45625   -4.99       -56.97      -0.65       -16.52      
489.5125    -4.91       -57.13      -0.82       -16.45      
489.56875   -4.7        -53.73      -1.04       -16.59      
489.625     -4.66       -57.07      -1.29       -16.65      
489.68125   -4.51       -50.62      -1.51       -16.56      
489.7375    -4.45       -58.86      -1.73       -16.52      
489.79375   -4.37       -67.4       -1.93       -16.56      
489.85      -4.28       -57.67      -2.16       -16.56      
489.90625   -4.2        -56.05      -2.4        -16.55      
489.9625    -4.13       -54.02      -2.59       -16.46      
490.01875   -4.07       -63.08      -2.81       -16.64      
490.075     -3.99       -59.77      -2.99       -16.5       
490.13125   -3.91       -54.64      -3.17       -16.48      
490.1875    -3.85       -60.55      -3.33       -16.46      
490.24375   -3.76       -63.81      -3.54       -16.57      
490.3       -3.72       -55.37      -3.71       -16.41      
490.35625   -3.63       -58.22      -3.93       -16.59      
490.4125    -3.58       -52.0       -4.09       -16.42      
490.46875   -3.54       -58.56      -4.33       -16.56      
490.525     -3.49       -60.9       -4.5        -16.52      
490.58125   -3.41       -60.35      -4.76       -16.61      
490.6375    -3.37       -62.52      -4.93       -16.5       
490.69375   -3.28       -59.27      -5.2        -16.54      
490.75      -3.23       -66.25      -5.36       -16.5       
490.80625   -3.21       -53.87      -5.66       -16.54      
490.8625    -3.2        -55.43      -5.81       -16.5       
490.91875   -3.14       -59.73      -6.1        -16.58      
490.975     -3.14       -56.9       -6.27       -16.57      
491.03125   -3.08       -73.46      -6.47       -16.54      
491.0875    -3.05       -59.06      -6.64       -16.45      
491.14375   -3.02       -54.3       -6.87       -16.53      
491.2       -3.03       -54.93      -7.02       -16.38      
491.25625   -2.99       -65.08      -7.26       -16.43      
491.3125    -2.98       -60.07      -7.47       -16.53      
491.36875   -2.9        -59.43      -7.72       -16.5       
491.425     -2.94       -63.56      -7.93       -16.5       
491.48125   -2.85       -62.95      -8.08       -16.47      
491.5375    -2.84       -67.29      -8.29       -16.5       
491.59375   -2.84       -54.79      -8.47       -16.49      
491.65      -2.79       -59.91      -8.71       -16.52      
491.70625   -2.73       -64.11      -8.89       -16.55      
491.7625    -2.79       -57.64      -9.08       -16.52      
491.81875   -2.71       -55.49      -9.27       -16.59      
491.875     -2.71       -60.57      -9.51       -16.49      
491.93125   -2.7        -55.94      -9.72       -16.53      
491.9875    -2.72       -59.21      -9.89       -16.51      
492.04375   -2.68       -75.68      -10.08      -16.59      
492.1       -2.69       -58.41      -10.32      -16.54      
492.15625   -2.64       -53.06      -10.53      -16.48      
492.2125    -2.68       -58.24      -10.64      -16.5       
492.26875   -2.65       -60.43      -10.89      -16.57      
492.325     -2.67       -72.15      -11.07      -16.44      
492.38125   -2.59       -59.76      -11.22      -16.52      
492.4375    -2.59       -62.43      -11.4       -16.51      
492.49375   -2.56       -58.57      -11.57      -16.51      
492.55      -2.57       -61.79      -11.72      -16.51      
492.60625   -2.54       -60.84      -11.87      -16.56      
492.6625    -2.53       -59.93      -12.08      -16.45      
492.71875   -2.53       -61.14      -12.23      -16.53      
492.775     -2.54       -53.92      -12.49      -16.44      
492.83125   -2.47       -50.23      -12.66      -16.53      
492.8875    -2.49       -61.66      -12.9       -16.5       
492.94375   -2.51       -56.7       -13.08      -16.61      
493.0       -2.48       -67.25      -13.22      -16.45      
493.05625   -2.44       -60.89      -13.38      -16.61      
493.1125    -2.47       -66.59      -13.53      -16.47      
493.16875   -2.42       -61.13      -13.7       -16.51      
493.225     -2.42       -65.67      -13.85      -16.55      
493.28125   -2.42       -55.05      -14.18      -16.4       
493.3375    -2.41       -53.22      -14.32      -16.54      
493.39375   -2.38       -61.05      -14.46      -16.42      
493.45      -2.35       -57.35      -14.64      -16.5       
493.50625   -2.41       -65.86      -14.84      -16.49      
493.5625    -2.4        -67.39      -15.03      -16.5       
493.61875   -2.36       -62.12      -15.22      -16.58      
493.675     -2.31       -57.17      -15.42      -16.59      
493.73125   -2.37       -59.24      -15.58      -16.51      
493.7875    -2.34       -56.47      -15.8       -16.55      
493.84375   -2.36       -62.68      -15.87      -16.6       
493.9       -2.35       -64.57      -16.09      -16.57      
493.95625   -2.33       -55.77      -16.33      -16.53      
494.0125    -2.38       -70.88      -16.39      -16.62      
494.06875   -2.37       -58.29      -16.59      -16.48      
494.125     -2.37       -60.34      -16.82      -16.54      
494.18125   -2.36       -64.69      -16.93      -16.55      
494.2375    -2.35       -58.97      -17.25      -16.49      
494.29375   -2.33       -56.87      -17.31      -16.56      
494.35      -2.36       -58.69      -17.64      -16.42      
494.40625   -2.32       -58.25      -17.76      -16.57      
494.4625    -2.36       -60.48      -17.99      -16.48      
494.51875   -2.3        -50.86      -18.05      -16.57      
494.575     -2.27       -55.03      -18.33      -16.57      
494.63125   -2.27       -62.67      -18.4       -16.62      
494.6875    -2.29       -59.24      -18.68      -16.53      
494.74375   -2.28       -54.61      -18.82      -16.58      
494.8       -2.27       -59.74      -19.05      -16.41      
494.85625   -2.28       -66.6       -19.08      -16.43      
494.9125    -2.29       -59.46      -19.42      -16.51      
494.96875   -2.29       -57.69      -19.57      -16.65      
495.025     -2.3        -64.99      -19.73      -16.53      
495.08125   -2.26       -61.92      -19.88      -16.52      
495.1375    -2.28       -58.74      -20.04      -16.53      
495.19375   -2.26       -54.36      -20.16      -16.41      
495.25      -2.25       -57.76      -20.31      -16.49      
495.30625   -2.24       -62.97      -20.42      -16.53      
495.3625    -2.27       -54.0       -20.67      -16.52      
495.41875   -2.23       -59.67      -20.93      -16.48      
495.475     -2.25       -57.78      -21.04      -16.4       
495.53125   -2.23       -56.43      -21.13      -16.67      
495.5875    -2.24       -58.49      -21.33      -16.6       
495.64375   -2.21       -58.48      -21.34      -16.55      
495.7       -2.25       -56.42      -21.64      -16.6       
495.75625   -2.25       -54.89      -22.03      -16.49      
495.8125    -2.25       -59.27      -22.07      -16.57      
495.86875   -2.2        -55.68      -22.34      -16.6       
495.925     -2.23       -68.78      -22.6       -16.61      
495.98125   -2.27       -67.85      -22.72      -16.58      
496.0375    -2.26       -74.38      -22.9       -16.54      
496.09375   -2.21       -65.02      -22.94      -16.49      
496.15      -2.24       -58.06      -23.24      -16.54      
496.20625   -2.26       -63.68      -23.48      -16.56      
496.2625    -2.22       -60.32      -23.57      -16.55      
496.31875   -2.26       -63.7       -23.62      -16.49      
496.375     -2.25       -59.42      -23.99      -16.68      
496.43125   -2.2        -61.83      -23.99      -16.56      
496.4875    -2.26       -67.73      -23.89      -16.63      
496.54375   -2.2        -67.41      -24.16      -16.59      
496.6       -2.21       -67.06      -24.35      -16.59      
496.65625   -2.22       -50.36      -24.23      -16.53      
496.7125    -2.21       -57.43      -24.81      -16.6       
496.76875   -2.23       -61.58      -24.86      -16.54      
496.825     -2.27       -68.26      -25.19      -16.64      
496.88125   -2.22       -56.45      -25.36      -16.44      
496.9375    -2.27       -60.38      -25.2       -16.65      
496.99375   -2.21       -56.66      -25.4       -16.55      
497.05      -2.19       -52.34      -25.27      -16.7       
497.10625   -2.25       -70.25      -25.31      -16.45      
497.1625    -2.21       -56.88      -25.66      -16.65      
497.21875   -2.22       -55.64      -25.8       -16.53      
497.275     -2.22       -55.72      -25.98      -16.69      
497.33125   -2.16       -59.67      -26.21      -16.64      
497.3875    -2.2        -55.56      -26.43      -16.69      
497.44375   -2.22       -53.72      -26.55      -16.61      
497.5       -2.24       -58.68      -26.5       -16.59      
497.55625   -2.2        -65.34      -26.61      -16.53      
497.6125    -2.22       -67.99      -26.39      -16.52      
497.66875   -2.19       -56.49      -26.45      -16.5       
497.725     -2.2        -68.51      -26.68      -16.54      
497.78125   -2.19       -62.15      -26.54      -16.68      
497.8375    -2.18       -56.74      -26.75      -16.57      
497.89375   -2.21       -67.62      -26.88      -16.56      
497.95      -2.19       -54.31      -27.1       -16.51      
498.00625   -2.2        -58.71      -27.24      -16.56      
498.0625    -2.18       -58.18      -27.41      -16.62      
498.11875   -2.2        -60.37      -27.61      -16.62      
498.175     -2.2        -55.24      -27.55      -16.59      
498.23125   -2.19       -58.99      -27.41      -16.62      
498.2875    -2.24       -55.91      -27.37      -16.6       
498.34375   -2.21       -60.71      -27.33      -16.64      
498.4       -2.22       -66.02      -27.63      -16.62      
498.45625   -2.19       -54.75      -27.68      -16.61      
498.5125    -2.2        -61.47      -27.73      -16.6       
498.56875   -2.22       -57.85      -28.03      -16.66      
498.625     -2.24       -57.71      -27.97      -16.66      
498.68125   -2.18       -67.42      -28.18      -16.72      
498.7375    -2.22       -55.56      -28.12      -16.6       
498.79375   -2.2        -75.47      -28.15      -16.69      
498.85      -2.2        -63.68      -28.05      -16.57      
498.90625   -2.18       -55.54      -28.38      -16.61      
498.9625    -2.15       -57.18      -27.88      -16.6       
499.01875   -2.18       -62.35      -28.39      -16.6       
499.075     -2.2        -59.62      -28.44      -16.63      
499.13125   -2.15       -63.62      -28.39      -16.64      
499.1875    -2.22       -54.21      -28.47      -16.6       
499.24375   -2.15       -56.23      -28.6       -16.69      
499.3       -2.22       -65.74      -28.51      -16.62      
499.35625   -2.21       -61.83      -29.15      -16.64      
499.4125    -2.17       -56.34      -28.54      -16.59      
499.46875   -2.2        -59.3       -28.77      -16.6       
499.525     -2.21       -55.72      -28.97      -16.65      
499.58125   -2.17       -67.34      -28.82      -16.55      
499.6375    -2.17       -53.98      -28.66      -16.6       
499.69375   -2.16       -57.02      -29.68      -16.52      
499.75      -2.17       -56.82      -29.49      -16.64      
499.80625   -2.14       -64.01      -29.69      -16.52      
499.8625    -2.15       -64.54      -29.85      -16.56      
499.91875   -2.15       -61.17      -29.81      -16.64      
499.975     -2.2        -62.21      -29.87      -16.52      
500.03125   -2.21       -56.13      -29.85      -16.53      
500.0875    -2.17       -58.88      -29.61      -16.61      
500.14375   -2.16       -62.11      -29.77      -16.6       
500.2       -2.16       -59.35      -29.2       -16.69      
500.25625   -2.16       -56.78      -29.79      -16.66      
500.3125    -2.18       -59.74      -29.11      -16.6       
500.36875   -2.15       -59.45      -29.81      -16.53      
500.425     -2.19       -56.76      -29.86      -16.58      
500.48125   -2.12       -55.7       -30.68      -16.62      
500.5375    -2.16       -58.66      -30.36      -16.49      
500.59375   -2.17       -60.05      -30.97      -16.58      
500.65      -2.17       -63.01      -30.77      -16.51      
500.70625   -2.16       -61.93      -30.96      -16.66      
500.7625    -2.16       -60.13      -30.99      -16.65      
500.81875   -2.17       -59.57      -31.25      -16.57      
500.875     -2.2        -59.8       -30.9       -16.66      
500.93125   -2.15       -62.18      -31.27      -16.54      
500.9875    -2.19       -57.47      -30.81      -16.61      
501.04375   -2.13       -61.67      -30.93      -16.63      
501.1       -2.19       -64.78      -31.05      -16.63      
501.15625   -2.17       -67.19      -31.09      -16.68      
501.2125    -2.15       -55.84      -31.16      -16.63      
501.26875   -2.15       -55.69      -31.44      -16.65      
501.325     -2.14       -60.45      -31.11      -16.59      
501.38125   -2.14       -55.66      -31.32      -16.67      
501.4375    -2.17       -65.82      -31.31      -16.57      
501.49375   -2.15       -62.88      -32.39      -16.57      
501.55      -2.13       -59.73      -31.25      -16.56      
501.60625   -2.11       -52.15      -31.98      -16.64      
501.6625    -2.2        -82.08      -31.47      -16.62      
501.71875   -2.15       -63.79      -32.39      -16.72      
501.775     -2.22       -62.79      -31.99      -16.7       
501.83125   -2.17       -61.31      -32.54      -16.64      
501.8875    -2.16       -61.06      -31.69      -16.6       
501.94375   -2.16       -66.6       -32.48      -16.64      
502.0       -2.17       -57.32      -32.4       -16.64      
502.05625   -2.16       -55.43      -32.7       -16.75      
502.1125    -2.18       -53.14      -32.03      -16.62      
502.16875   -2.15       -70.98      -32.47      -16.61      
502.225     -2.2        -60.12      -31.81      -16.65      
502.28125   -2.16       -59.35      -32.58      -16.73      
502.3375    -2.18       -57.24      -32.08      -16.6       
502.39375   -2.15       -55.5       -32.27      -16.66      
502.45      -2.19       -62.0       -32.35      -16.76      
502.50625   -2.14       -57.59      -32.25      -16.7       
502.5625    -2.17       -55.03      -32.21      -16.71      
502.61875   -2.17       -59.47      -32.79      -16.65      
502.675     -2.19       -56.4       -32.24      -16.65      
502.73125   -2.12       -67.18      -33.09      -16.67      
502.7875    -2.17       -67.02      -32.47      -16.67      
502.84375   -2.16       -60.52      -32.89      -16.78      
502.9       -2.19       -67.0       -33.02      -16.75      
502.95625   -2.16       -64.11      -33.16      -16.66      
503.0125    -2.21       -54.94      -32.83      -16.77      
503.06875   -2.17       -62.05      -33.66      -16.67      
503.125     -2.19       -70.41      -33.38      -16.63      
503.18125   -2.16       -56.98      -34.01      -16.67      
503.2375    -2.19       -61.34      -33.18      -16.7       
503.29375   -2.2        -63.32      -33.86      -16.67      
503.35      -2.21       -65.87      -32.87      -16.74      
503.40625   -2.2        -67.06      -33.53      -16.65      
503.4625    -2.24       -72.87      -32.77      -16.71      
503.51875   -2.16       -57.98      -32.66      -16.64      
503.575     -2.24       -59.65      -32.34      -16.56      
503.63125   -2.16       -64.43      -33.16      -16.62      
503.6875    -2.26       -58.01      -32.77      -16.77      
503.74375   -2.18       -61.34      -33.03      -16.76      
503.8       -2.21       -77.04      -33.43      -16.73      
503.85625   -2.2        -67.45      -34.31      -16.75      
503.9125    -2.19       -62.72      -33.39      -16.77      
503.96875   -2.16       -68.09      -34.21      -16.7       
504.025     -2.24       -57.83      -33.64      -16.62      
504.08125   -2.17       -70.24      -34.68      -16.65      
504.1375    -2.25       -55.86      -33.94      -16.73      
504.19375   -2.2        -81.2       -34.55      -16.67      
504.25      -2.23       -56.79      -33.15      -16.64      
504.30625   -2.19       -60.31      -33.79      -16.79      
504.3625    -2.2        -55.85      -33.23      -16.76      
504.41875   -2.2        -64.26      -34.01      -16.75      
504.475     -2.27       -54.68      -32.98      -16.69      
504.53125   -2.18       -62.35      -33.47      -16.66      
504.5875    -2.26       -60.11      -33.09      -16.74      
504.64375   -2.22       -64.07      -33.18      -16.67      
504.7       -2.29       -60.85      -32.58      -16.69      
504.75625   -2.21       -69.63      -33.48      -16.8       
504.8125    -2.27       -57.41      -33.23      -16.62      
504.86875   -2.25       -54.56      -34.42      -16.65      
504.925     -2.28       -55.12      -33.31      -16.71      
504.98125   -2.19       -61.03      -34.68      -16.74      
505.0375    -2.23       -59.21      -33.32      -16.64      
505.09375   -2.22       -56.92      -34.12      -16.74      
505.15      -2.26       -63.33      -34.09      -16.64      
505.20625   -2.21       -65.25      -34.69      -16.78      
505.2625    -2.27       -60.53      -34.05      -16.72      
505.31875   -2.2        -79.63      -35.12      -16.75      
505.375     -2.28       -52.89      -34.23      -16.68      
505.43125   -2.25       -65.36      -34.95      -16.71      
505.4875    -2.27       -59.6       -34.27      -16.84      
505.54375   -2.25       -63.58      -34.36      -16.87      
505.6       -2.3        -65.59      -33.32      -16.76      
505.65625   -2.29       -61.48      -33.75      -16.79      
505.7125    -2.31       -57.02      -32.88      -16.82      
505.76875   -2.25       -56.41      -33.35      -16.77      
505.825     -2.27       -52.5       -32.56      -16.81      
505.88125   -2.27       -60.68      -33.84      -16.83      
505.9375    -2.3        -61.27      -32.77      -16.69      
505.99375   -2.29       -56.73      -34.36      -16.82      
506.05      -2.36       -60.42      -33.01      -16.8       
506.10625   -2.26       -67.6       -33.66      -16.74      
506.1625    -2.31       -52.81      -33.37      -16.73      
506.21875   -2.28       -59.41      -33.63      -16.77      
506.275     -2.31       -57.6       -33.87      -16.64      
506.33125   -2.27       -54.06      -33.7       -16.71      
506.3875    -2.38       -59.68      -34.17      -16.85      
506.44375   -2.3        -52.71      -34.34      -16.65      
506.5       -2.3        -63.35      -33.56      -16.86      
506.55625   -2.26       -64.44      -33.91      -16.8       
506.6125    -2.36       -58.47      -33.86      -16.78      
506.66875   -2.31       -59.4       -33.41      -16.83      
506.725     -2.37       -58.06      -33.0       -16.79      
506.78125   -2.33       -58.54      -33.58      -16.74      
506.8375    -2.42       -61.75      -33.12      -16.8       
506.89375   -2.36       -55.23      -33.47      -16.83      
506.95      -2.42       -56.18      -32.49      -16.73      
507.00625   -2.33       -65.6       -33.46      -16.85      
507.0625    -2.4        -60.63      -32.72      -16.79      
507.11875   -2.34       -56.2       -33.38      -16.77      
507.175     -2.34       -60.29      -32.97      -16.75      
507.23125   -2.31       -55.44      -33.02      -16.74      
507.2875    -2.38       -66.67      -33.22      -16.8       
507.34375   -2.34       -56.91      -33.25      -16.74      
507.4       -2.4        -59.45      -33.04      -16.74      
507.45625   -2.36       -57.93      -33.6       -16.71      
507.5125    -2.42       -62.26      -33.92      -16.8       
507.56875   -2.38       -52.19      -33.31      -16.8       
507.625     -2.39       -59.21      -33.58      -16.8       
507.68125   -2.36       -59.7       -33.61      -16.93      
507.7375    -2.46       -58.17      -32.85      -16.72      
507.79375   -2.37       -59.42      -33.26      -16.78      
507.85      -2.47       -63.49      -32.65      -16.67      
507.90625   -2.36       -55.8       -33.47      -16.89      
507.9625    -2.43       -59.52      -32.51      -16.79      
508.01875   -2.43       -62.88      -33.25      -16.71      
508.075     -2.5        -58.27      -32.65      -16.84      
508.13125   -2.43       -59.64      -32.87      -16.81      
508.1875    -2.44       -58.94      -33.25      -16.83      
508.24375   -2.46       -71.88      -33.02      -16.82      
508.3       -2.46       -65.44      -32.81      -16.78      
508.35625   -2.38       -66.91      -32.5       -16.77      
508.4125    -2.48       -56.14      -33.5       -16.9       
508.46875   -2.39       -56.64      -33.11      -16.79      
508.525     -2.48       -72.77      -32.92      -16.75      
508.58125   -2.46       -69.07      -33.42      -16.82      
508.6375    -2.44       -59.59      -33.17      -16.92      
508.69375   -2.43       -52.23      -33.42      -16.7       
508.75      -2.54       -57.21      -32.87      -16.79      
508.80625   -2.48       -51.03      -33.22      -16.76      
508.8625    -2.55       -52.82      -32.74      -16.89      
508.91875   -2.46       -52.91      -32.79      -16.87      
508.975     -2.48       -63.16      -33.0       -16.92      
509.03125   -2.42       -61.57      -33.12      -16.7       
509.0875    -2.5        -52.54      -33.06      -16.77      
509.14375   -2.45       -68.83      -32.7       -16.89      
509.2       -2.48       -52.0       -32.86      -16.82      
509.25625   -2.43       -62.14      -33.3       -16.88      
509.3125    -2.47       -56.66      -33.07      -16.87      
509.36875   -2.48       -69.31      -32.62      -16.79      
509.425     -2.53       -60.56      -32.65      -16.87      
509.48125   -2.54       -62.72      -33.0       -16.81      
509.5375    -2.58       -56.82      -32.53      -16.87      
509.59375   -2.51       -63.24      -32.76      -16.74      
509.65      -2.52       -55.38      -33.5       -16.86      
509.70625   -2.52       -71.15      -33.24      -16.79      
509.7625    -2.53       -59.19      -33.81      -16.9       
509.81875   -2.53       -57.23      -33.68      -16.85      
509.875     -2.52       -58.24      -33.79      -16.98      
509.93125   -2.49       -58.29      -33.6       -16.74      
509.9875    -2.55       -56.88      -33.86      -16.95      
510.04375   -2.53       -55.1       -33.31      -16.84      
510.1       -2.53       -66.78      -33.42      -16.88      
510.15625   -2.55       -53.53      -33.15      -16.87      
510.2125    -2.54       -63.85      -32.73      -16.7       
510.26875   -2.55       -60.04      -32.88      -16.85      
510.325     -2.58       -60.26      -32.93      -16.81      
510.38125   -2.54       -56.16      -33.3       -16.83      
510.4375    -2.63       -57.15      -33.66      -16.9       
510.49375   -2.55       -58.21      -33.32      -16.88      
510.55      -2.56       -68.39      -33.12      -16.86      
510.60625   -2.59       -59.75      -32.9       -16.82      
510.6625    -2.57       -53.12      -33.58      -16.84      
510.71875   -2.54       -59.99      -32.74      -16.83      
510.775     -2.59       -57.94      -33.8       -17.01      
510.83125   -2.51       -68.94      -32.94      -16.89      
510.8875    -2.56       -75.43      -33.59      -16.84      
510.94375   -2.54       -56.45      -33.36      -16.82      
511.0       -2.55       -56.48      -33.69      -16.79      
511.05625   -2.52       -62.53      -32.92      -16.84      
511.1125    -2.57       -56.86      -34.23      -16.89      
511.16875   -2.55       -61.26      -33.6       -16.87      
511.225     -2.55       -65.5       -34.67      -16.83      
511.28125   -2.51       -59.2       -33.75      -16.94      
511.3375    -2.59       -58.66      -34.72      -16.86      
511.39375   -2.56       -59.55      -33.85      -16.74      
511.45      -2.59       -55.69      -34.09      -16.9       
511.50625   -2.57       -56.64      -33.45      -16.81      
511.5625    -2.64       -61.4       -34.11      -16.85      
511.61875   -2.59       -59.39      -34.05      -16.78      
511.675     -2.63       -54.3       -34.42      -16.88      
511.73125   -2.58       -58.11      -33.6       -16.89      
511.7875    -2.57       -62.87      -34.71      -16.9       
511.84375   -2.53       -56.75      -34.07      -16.82      
511.9       -2.57       -64.19      -35.66      -16.92      
511.95625   -2.52       -55.78      -34.34      -16.94      
512.0125    -2.57       -64.38      -34.97      -17.01      
512.06875   -2.52       -60.42      -34.8       -16.75      
512.125     -2.51       -62.59      -35.54      -16.87      
512.18125   -2.53       -55.6       -34.44      -17.03      
512.2375    -2.55       -56.3       -35.22      -16.92      
512.29375   -2.59       -63.79      -34.11      -16.9       
512.35      -2.62       -55.22      -34.71      -16.86      
512.40625   -2.56       -57.43      -34.19      -16.76      
512.4625    -2.66       -55.4       -34.88      -16.93      
512.51875   -2.57       -54.52      -34.41      -16.92      
512.575     -2.61       -69.66      -35.05      -17.01      
512.63125   -2.51       -66.26      -34.92      -16.83      
512.6875    -2.58       -54.18      -35.34      -16.89      
512.74375   -2.56       -63.75      -35.28      -16.88      
512.8       -2.59       -58.46      -35.86      -17.02      
512.85625   -2.54       -58.02      -34.44      -16.86      
512.9125    -2.6        -71.68      -35.29      -16.92      
512.96875   -2.55       -53.66      -34.86      -16.97      
513.025     -2.59       -70.8       -35.63      -16.97      
513.08125   -2.55       -54.67      -35.08      -16.87      
513.1375    -2.58       -57.87      -35.64      -16.91      
513.19375   -2.55       -53.64      -34.99      -16.96      
513.25      -2.55       -59.29      -35.77      -16.93      
513.30625   -2.55       -57.25      -35.18      -16.91      
513.3625    -2.56       -66.57      -36.69      -16.99      
513.41875   -2.51       -61.13      -35.97      -16.88      
513.475     -2.58       -62.87      -36.79      -16.96      
513.53125   -2.57       -63.73      -35.91      -16.96      
513.5875    -2.58       -68.92      -37.21      -16.95      
513.64375   -2.53       -70.63      -36.75      -16.96      
513.7       -2.54       -70.89      -36.71      -16.95      
513.75625   -2.57       -57.02      -36.98      -16.99      
513.8125    -2.57       -66.63      -37.33      -17.01      
513.86875   -2.56       -61.12      -35.99      -17.04      
513.925     -2.6        -61.84      -37.33      -16.92      
513.98125   -2.61       -58.84      -36.46      -16.94      
514.0375    -2.63       -63.58      -36.31      -16.99      
514.09375   -2.57       -61.34      -36.83      -16.91      
514.15      -2.61       -64.02      -37.42      -16.97      
514.20625   -2.57       -64.55      -37.25      -16.8       
514.2625    -2.61       -65.46      -38.84      -16.99      
514.31875   -2.54       -57.97      -36.41      -17.02      
514.375     -2.56       -58.36      -37.43      -16.91      
514.43125   -2.52       -60.2       -36.77      -17.04      
514.4875    -2.56       -59.64      -37.74      -16.98      
514.54375   -2.49       -57.23      -37.53      -16.85      
514.6       -2.54       -64.66      -38.02      -16.88      
514.65625   -2.56       -53.02      -37.57      -16.98      
514.7125    -2.57       -56.47      -38.74      -16.9       
514.76875   -2.52       -59.59      -37.48      -17.03      
514.825     -2.55       -57.12      -38.81      -17.06      
514.88125   -2.52       -67.5       -38.03      -16.84      
514.9375    -2.52       -58.02      -38.1       -16.84      
514.99375   -2.54       -61.9       -37.02      -16.84      
515.05      -2.59       -58.85      -37.06      -17.06      
515.10625   -2.57       -65.74      -38.05      -17.08      
515.1625    -2.62       -60.42      -38.18      -16.94      
515.21875   -2.58       -55.01      -37.64      -17.02      
515.275     -2.62       -64.93      -39.03      -16.98      
515.33125   -2.55       -61.21      -38.79      -16.99      
515.3875    -2.6        -56.73      -38.9       -16.99      
515.44375   -2.54       -63.4       -38.89      -16.92      
515.5       -2.58       -60.88      -39.27      -17.07      
515.55625   -2.52       -58.48      -38.53      -16.96      
515.6125    -2.52       -58.51      -39.88      -16.94      
515.66875   -2.51       -57.19      -40.01      -17.05      
515.725     -2.53       -63.87      -39.05      -16.99      
515.78125   -2.47       -78.31      -39.55      -16.92      
515.8375    -2.55       -64.05      -40.16      -16.94      
515.89375   -2.52       -62.72      -39.14      -16.98      
515.95      -2.59       -62.47      -39.75      -16.91      
516.00625   -2.55       -60.01      -39.02      -16.93      
516.0625    -2.56       -71.77      -40.36      -16.99      
516.11875   -2.55       -61.84      -39.34      -16.92      
516.175     -2.6        -54.65      -40.98      -17.08      
516.23125   -2.59       -56.56      -40.58      -16.9       
516.2875    -2.59       -64.46      -40.28      -17.0       
516.34375   -2.58       -57.6       -41.17      -17.02      
516.4       -2.55       -68.48      -42.11      -17.03      
516.45625   -2.58       -56.0       -41.45      -17.02      
516.5125    -2.58       -54.4       -41.38      -17.01      
516.56875   -2.53       -64.16      -40.85      -16.88      
516.625     -2.58       -60.1       -41.05      -17.03      
516.68125   -2.54       -55.38      -41.18      -16.99      
516.7375    -2.53       -65.09      -41.29      -17.11      
516.79375   -2.56       -53.97      -41.19      -16.94      
516.85      -2.54       -61.38      -42.18      -17.05      
516.90625   -2.54       -57.76      -41.85      -17.0       
516.9625    -2.53       -61.22      -41.51      -16.94      
517.01875   -2.52       -58.86      -41.15      -17.07      
517.075     -2.53       -55.59      -42.03      -17.05      
517.13125   -2.52       -60.38      -41.93      -16.89      
517.1875    -2.53       -63.04      -40.92      -16.95      
517.24375   -2.51       -63.6       -43.42      -16.98      
517.3       -2.51       -55.36      -41.51      -16.91      
517.35625   -2.48       -68.61      -41.71      -16.96      
517.4125    -2.53       -73.4       -42.04      -17.08      
517.46875   -2.51       -56.21      -43.08      -17.1       
517.525     -2.56       -59.74      -42.3       -16.92      
517.58125   -2.52       -73.18      -44.21      -16.9       
517.6375    -2.58       -54.1       -42.49      -17.01      
517.69375   -2.58       -53.61      -43.66      -17.03      
517.75      -2.54       -57.25      -41.36      -17.09      
517.80625   -2.57       -54.86      -43.62      -17.0       
517.8625    -2.55       -61.47      -41.57      -17.06      
517.91875   -2.56       -57.63      -43.81      -16.95      
517.975     -2.57       -59.21      -43.99      -17.0       
518.03125   -2.55       -56.16      -45.92      -17.01      
518.0875    -2.55       -72.53      -42.51      -16.94      
518.14375   -2.52       -60.57      -46.09      -17.04      
518.2       -2.53       -62.28      -43.86      -17.03      
518.25625   -2.51       -65.72      -46.95      -16.97      
518.3125    -2.47       -55.68      -42.95      -17.06      
518.36875   -2.53       -59.46      -43.87      -17.01      
518.425     -2.5        -58.29      -43.38      -16.94      
518.48125   -2.52       -56.04      -45.22      -17.07      
518.5375    -2.54       -63.78      -43.43      -17.08      
518.59375   -2.47       -63.78      -47.25      -17.0       
518.65      -2.54       -63.98      -45.29      -17.01      
518.70625   -2.54       -58.21      -48.1       -17.15      
518.7625    -2.51       -62.21      -44.3       -17.07      
518.81875   -2.56       -56.74      -47.67      -17.03      
518.875     -2.58       -54.93      -45.3       -17.05      
518.93125   -2.53       -59.45      -50.5       -17.08      
518.9875    -2.57       -68.64      -44.9       -17.07      
519.04375   -2.55       -65.02      -51.02      -16.97      
519.1       -2.54       -56.31      -44.64      -17.14      
519.15625   -2.54       -53.8       -49.72      -17.08      
519.2125    -2.59       -57.33      -49.21      -16.98      
519.26875   -2.5        -54.98      -52.06      -16.99      
519.325     -2.55       -59.18      -46.33      -17.12      
519.38125   -2.52       -62.76      -49.97      -17.05      
519.4375    -2.53       -57.3       -47.58      -17.0       
519.49375   -2.5        -60.87      -48.22      -17.03      
519.55      -2.52       -51.03      -48.01      -17.03      
519.60625   -2.49       -59.56      -56.45      -17.16      
519.6625    -2.53       -61.04      -46.96      -17.09      
519.71875   -2.51       -59.62      -51.91      -17.05      
519.775     -2.51       -53.6       -48.2       -16.98      
519.83125   -2.51       -59.42      -49.67      -17.11      
519.8875    -2.5        -59.56      -49.6       -17.0       
519.94375   -2.49       -58.06      -52.61      -17.0       
520.0       -2.53       -60.94      -46.96      -17.05      
