TESTE DA PLACA: RFFE

Operador: Fernando
Numero de Serie: 11111111
RFFE Software Version: V2_0002
RFFE - IP: 10.0.18.9
RFFE - Communication: OK
Start Time: 23-02-2017 20:52:50
End Time: 23-02-2017 20:52:50
Duracao do Teste: 6.609 min

Set-up Info:
Network Analyzer Model: E5062A
Network Analyzer - IP: 10.0.18.20
Network Analyzer - Communication: OK
Waveform Generator Model: 33500B
Waveform Generator - IP: 10.0.18.13
Waveform Generator - Communication: OK
RF Switch Model: RC-2SP4T-A18
RF Switch1 - IP: 10.0.18.12
RF Switch1 - Communication: OK
RF Switch2 - IP: 10.0.18.15
RF Switch2 - Communication: OK
DC Power Supply Model: 6626A

RESULTS:

RFFE Ch: 4-4

Freq [MHz]  S11 [dB]    S12 [dB]    S21 [dB]    S22 [dB]    
430.0       -2.6        -59.58      -44.68      -17.09      
430.05625   -2.59       -65.32      -42.56      -17.26      
430.1125    -2.54       -61.31      -44.27      -17.03      
430.16875   -2.57       -63.44      -45.06      -17.05      
430.225     -2.57       -52.72      -44.17      -17.03      
430.28125   -2.57       -62.68      -43.86      -17.13      
430.3375    -2.56       -67.65      -43.04      -17.01      
430.39375   -2.57       -62.12      -43.18      -17.12      
430.45      -2.52       -60.49      -44.46      -17.0       
430.50625   -2.57       -64.36      -42.74      -17.09      
430.5625    -2.51       -65.34      -43.14      -17.03      
430.61875   -2.58       -61.15      -42.49      -17.05      
430.675     -2.55       -67.11      -44.1       -17.08      
430.73125   -2.55       -57.43      -44.8       -17.07      
430.7875    -2.53       -56.09      -42.88      -17.05      
430.84375   -2.5        -53.83      -43.12      -17.22      
430.9       -2.53       -53.64      -44.25      -17.04      
430.95625   -2.57       -58.44      -43.54      -17.1       
431.0125    -2.55       -57.03      -41.91      -17.08      
431.06875   -2.57       -61.16      -41.87      -17.12      
431.125     -2.54       -54.01      -42.16      -17.06      
431.18125   -2.53       -54.56      -43.04      -17.08      
431.2375    -2.51       -68.48      -42.76      -16.96      
431.29375   -2.53       -58.16      -43.12      -17.14      
431.35      -2.48       -60.98      -43.08      -17.09      
431.40625   -2.52       -69.63      -43.27      -17.1       
431.4625    -2.51       -57.25      -42.51      -17.01      
431.51875   -2.5        -62.69      -43.31      -17.07      
431.575     -2.53       -52.02      -43.48      -16.96      
431.63125   -2.55       -54.3       -43.7       -17.1       
431.6875    -2.54       -63.98      -43.04      -16.94      
431.74375   -2.51       -59.28      -44.8       -17.18      
431.8       -2.57       -57.07      -43.56      -16.96      
431.85625   -2.57       -60.95      -43.5       -17.1       
431.9125    -2.5        -53.65      -43.68      -17.06      
431.96875   -2.6        -64.14      -42.79      -17.06      
432.025     -2.61       -70.11      -42.35      -17.04      
432.08125   -2.56       -52.47      -43.04      -17.05      
432.1375    -2.52       -63.24      -43.73      -17.07      
432.19375   -2.57       -65.73      -45.35      -17.17      
432.25      -2.6        -62.8       -42.31      -16.95      
432.30625   -2.6        -57.37      -43.59      -16.89      
432.3625    -2.57       -55.73      -43.65      -17.03      
432.41875   -2.6        -56.84      -45.0       -17.07      
432.475     -2.6        -56.23      -43.06      -17.06      
432.53125   -2.62       -61.5       -45.03      -17.04      
432.5875    -2.6        -69.61      -43.49      -17.06      
432.64375   -2.64       -62.99      -42.71      -17.12      
432.7       -2.64       -59.5       -42.73      -17.03      
432.75625   -2.69       -70.58      -45.03      -17.11      
432.8125    -2.67       -64.94      -42.76      -16.91      
432.86875   -2.73       -56.89      -45.1       -17.04      
432.925     -2.66       -69.85      -44.41      -17.01      
432.98125   -2.69       -55.71      -44.84      -17.08      
433.0375    -2.68       -67.06      -45.2       -17.05      
433.09375   -2.68       -56.56      -43.67      -16.98      
433.15      -2.7        -60.55      -44.14      -16.98      
433.20625   -2.71       -57.84      -44.72      -17.0       
433.2625    -2.66       -58.61      -42.79      -17.12      
433.31875   -2.63       -56.23      -43.44      -16.92      
433.375     -2.66       -64.66      -44.24      -17.09      
433.43125   -2.66       -54.62      -43.92      -17.06      
433.4875    -2.67       -64.33      -43.86      -16.98      
433.54375   -2.64       -60.45      -44.33      -17.08      
433.6       -2.68       -52.6       -43.16      -17.0       
433.65625   -2.68       -60.9       -45.24      -17.05      
433.7125    -2.64       -94.7       -43.84      -16.92      
433.76875   -2.66       -57.76      -45.36      -16.95      
433.825     -2.68       -58.33      -44.52      -16.97      
433.88125   -2.67       -59.64      -46.33      -16.96      
433.9375    -2.68       -58.2       -43.78      -17.14      
433.99375   -2.63       -57.43      -44.95      -17.04      
434.05      -2.63       -61.43      -41.98      -17.13      
434.10625   -2.65       -54.72      -45.86      -17.0       
434.1625    -2.65       -57.74      -42.24      -17.05      
434.21875   -2.66       -57.82      -45.23      -16.88      
434.275     -2.62       -70.08      -44.84      -17.0       
434.33125   -2.68       -76.56      -45.42      -16.99      
434.3875    -2.64       -55.49      -44.51      -17.0       
434.44375   -2.65       -68.41      -46.57      -17.0       
434.5       -2.64       -60.38      -45.17      -16.97      
434.55625   -2.68       -54.75      -44.59      -17.0       
434.6125    -2.65       -61.81      -42.45      -16.97      
434.66875   -2.66       -53.24      -46.84      -17.02      
434.725     -2.67       -60.33      -44.3       -17.07      
434.78125   -2.67       -59.1       -47.0       -16.95      
434.8375    -2.67       -58.87      -46.08      -17.01      
434.89375   -2.71       -56.65      -45.67      -16.97      
434.95      -2.66       -56.31      -44.23      -17.06      
435.00625   -2.66       -58.41      -46.05      -17.02      
435.0625    -2.69       -57.4       -43.55      -17.0       
435.11875   -2.71       -54.04      -47.43      -16.92      
435.175     -2.66       -56.73      -44.15      -16.92      
435.23125   -2.68       -64.61      -46.15      -16.99      
435.2875    -2.67       -56.17      -44.1       -17.04      
435.34375   -2.69       -62.45      -43.93      -17.04      
435.4       -2.64       -59.73      -44.59      -17.07      
435.45625   -2.71       -57.22      -45.32      -17.03      
435.5125    -2.65       -55.74      -45.44      -17.06      
435.56875   -2.66       -54.13      -43.73      -16.99      
435.625     -2.68       -61.7       -44.16      -17.03      
435.68125   -2.65       -58.37      -43.31      -17.01      
435.7375    -2.66       -61.24      -45.66      -17.0       
435.79375   -2.69       -61.21      -46.11      -16.94      
435.85      -2.65       -55.06      -45.74      -16.97      
435.90625   -2.63       -56.36      -45.44      -17.04      
435.9625    -2.64       -59.36      -44.36      -16.97      
436.01875   -2.64       -56.4       -48.74      -16.88      
436.075     -2.63       -59.95      -45.58      -17.11      
436.13125   -2.6        -50.63      -49.02      -16.86      
436.1875    -2.63       -60.25      -44.33      -17.03      
436.24375   -2.61       -58.85      -48.28      -16.95      
436.3       -2.67       -62.42      -44.85      -17.1       
436.35625   -2.63       -59.22      -53.48      -16.95      
436.4125    -2.62       -63.34      -45.45      -16.99      
436.46875   -2.65       -64.37      -53.6       -16.95      
436.525     -2.63       -54.19      -47.25      -16.99      
436.58125   -2.68       -60.86      -50.12      -16.98      
436.6375    -2.66       -52.23      -46.73      -17.01      
436.69375   -2.67       -75.9       -49.26      -16.98      
436.75      -2.69       -61.92      -47.72      -17.0       
436.80625   -2.69       -62.8       -55.65      -16.94      
436.8625    -2.66       -52.17      -50.39      -17.1       
436.91875   -2.74       -57.4       -52.84      -16.93      
436.975     -2.71       -58.01      -47.39      -17.01      
437.03125   -2.7        -60.28      -48.36      -17.04      
437.0875    -2.74       -54.73      -48.41      -17.09      
437.14375   -2.76       -64.02      -50.73      -16.96      
437.2       -2.8        -59.55      -44.06      -17.11      
437.25625   -2.79       -59.15      -52.8       -16.99      
437.3125    -2.85       -66.92      -50.53      -17.01      
437.36875   -2.8        -71.1       -52.36      -16.93      
437.425     -2.88       -63.73      -46.04      -17.08      
437.48125   -2.85       -51.92      -49.92      -16.94      
437.5375    -2.84       -55.32      -48.61      -16.91      
437.59375   -2.89       -60.56      -54.15      -16.92      
437.65      -2.94       -55.64      -49.07      -17.1       
437.70625   -2.94       -64.29      -50.09      -17.02      
437.7625    -2.95       -61.73      -46.13      -16.95      
437.81875   -2.96       -66.64      -47.98      -16.81      
437.875     -2.95       -52.23      -45.7       -17.04      
437.93125   -2.93       -68.04      -49.09      -16.84      
437.9875    -2.91       -59.1       -45.49      -17.0       
438.04375   -2.91       -57.98      -50.41      -16.89      
438.1       -2.91       -54.31      -45.71      -16.99      
438.15625   -2.93       -58.3       -48.25      -16.86      
438.2125    -2.91       -58.57      -45.54      -17.01      
438.26875   -2.83       -70.37      -48.01      -16.88      
438.325     -2.85       -64.81      -45.03      -16.92      
438.38125   -2.83       -60.39      -47.9       -16.97      
438.4375    -2.8        -52.55      -43.9       -17.07      
438.49375   -2.73       -57.49      -46.04      -16.82      
438.55      -2.72       -54.66      -43.78      -17.03      
438.60625   -2.75       -58.41      -48.57      -16.89      
438.6625    -2.7        -52.07      -43.1       -17.0       
438.71875   -2.66       -59.87      -45.7       -16.87      
438.775     -2.65       -56.02      -42.85      -17.05      
438.83125   -2.7        -61.74      -44.81      -17.05      
438.8875    -2.69       -56.93      -45.12      -17.09      
438.94375   -2.67       -65.2       -44.35      -16.93      
439.0       -2.65       -61.1       -43.69      -16.98      
439.05625   -2.67       -60.79      -44.69      -16.9       
439.1125    -2.64       -59.43      -43.4       -17.07      
439.16875   -2.61       -59.17      -44.56      -16.92      
439.225     -2.63       -63.65      -44.81      -16.88      
439.28125   -2.63       -60.79      -45.23      -16.95      
439.3375    -2.68       -55.71      -43.17      -16.91      
439.39375   -2.64       -58.72      -47.68      -16.82      
439.45      -2.67       -63.28      -44.31      -17.06      
439.50625   -2.65       -58.37      -44.6       -16.99      
439.5625    -2.63       -63.0       -43.43      -16.94      
439.61875   -2.62       -62.8       -44.82      -16.85      
439.675     -2.66       -58.05      -42.91      -17.07      
439.73125   -2.61       -61.27      -45.59      -16.86      
439.7875    -2.69       -59.72      -42.98      -17.05      
439.84375   -2.67       -55.62      -47.09      -16.88      
439.9       -2.66       -60.33      -42.06      -17.1       
439.95625   -2.68       -57.34      -47.75      -16.87      
440.0125    -2.66       -58.16      -42.94      -17.03      
440.06875   -2.69       -67.09      -45.72      -16.75      
440.125     -2.74       -58.97      -42.8       -17.06      
440.18125   -2.75       -56.16      -45.01      -16.9       
440.2375    -2.84       -62.75      -45.3       -17.03      
440.29375   -2.82       -65.47      -46.14      -16.99      
440.35      -2.83       -60.83      -45.51      -17.03      
440.40625   -2.78       -57.69      -47.44      -16.93      
440.4625    -2.82       -52.46      -43.38      -17.01      
440.51875   -2.84       -60.85      -46.4       -16.86      
440.575     -2.89       -59.4       -44.72      -17.1       
440.63125   -2.87       -56.96      -47.68      -16.86      
440.6875    -2.88       -59.56      -44.64      -17.03      
440.74375   -2.92       -57.81      -44.81      -16.93      
440.8       -2.94       -57.89      -44.86      -17.16      
440.85625   -2.98       -59.37      -46.27      -16.88      
440.9125    -2.95       -62.23      -43.75      -16.91      
440.96875   -3.0        -57.14      -48.22      -16.99      
441.025     -2.99       -67.15      -42.57      -17.02      
441.08125   -2.96       -62.22      -44.98      -16.84      
441.1375    -3.08       -64.45      -42.9       -17.03      
441.19375   -2.99       -58.51      -43.38      -17.01      
441.25      -2.97       -65.9       -43.1       -16.97      
441.30625   -2.93       -61.63      -43.8       -16.94      
441.3625    -2.95       -58.68      -42.74      -17.01      
441.41875   -2.87       -58.61      -42.98      -16.86      
441.475     -2.85       -55.06      -41.44      -17.09      
441.53125   -2.81       -55.46      -42.66      -16.85      
441.5875    -2.82       -53.52      -40.57      -17.03      
441.64375   -2.78       -55.08      -42.45      -16.93      
441.7       -2.78       -59.99      -42.65      -16.9       
441.75625   -2.79       -57.82      -41.89      -16.73      
441.8125    -2.81       -56.05      -42.57      -17.07      
441.86875   -2.74       -66.63      -43.16      -16.96      
441.925     -2.8        -58.1       -40.4       -16.94      
441.98125   -2.73       -61.47      -43.56      -16.84      
442.0375    -2.76       -58.88      -42.28      -17.0       
442.09375   -2.69       -56.13      -41.39      -16.9       
442.15      -2.69       -60.37      -40.61      -17.09      
442.20625   -2.65       -60.23      -41.79      -16.88      
442.2625    -2.68       -57.82      -40.21      -17.03      
442.31875   -2.63       -60.08      -42.67      -16.84      
442.375     -2.68       -75.57      -40.94      -17.08      
442.43125   -2.65       -71.04      -42.26      -16.81      
442.4875    -2.66       -58.68      -42.89      -16.9       
442.54375   -2.61       -56.44      -42.55      -16.91      
442.6       -2.68       -57.26      -40.34      -17.06      
442.65625   -2.61       -57.98      -43.12      -16.8       
442.7125    -2.63       -58.71      -41.43      -17.06      
442.76875   -2.62       -53.61      -43.35      -16.88      
442.825     -2.62       -65.1       -41.05      -17.06      
442.88125   -2.6        -57.43      -42.36      -16.91      
442.9375    -2.63       -61.26      -43.07      -17.06      
442.99375   -2.6        -57.09      -42.51      -16.87      
443.05      -2.65       -64.12      -42.36      -17.09      
443.10625   -2.64       -77.52      -42.6       -16.94      
443.1625    -2.66       -57.68      -40.93      -17.06      
443.21875   -2.65       -59.25      -44.39      -16.96      
443.275     -2.62       -62.31      -42.21      -17.02      
443.33125   -2.59       -60.81      -42.58      -16.86      
443.3875    -2.66       -55.63      -41.75      -16.85      
443.44375   -2.64       -64.25      -44.05      -17.04      
443.5       -2.61       -57.55      -42.8       -16.85      
443.55625   -2.62       -59.21      -43.0       -16.85      
443.6125    -2.65       -61.4       -41.67      -16.95      
443.66875   -2.62       -61.67      -42.11      -16.73      
443.725     -2.63       -77.52      -43.11      -16.83      
443.78125   -2.6        -61.95      -43.19      -16.92      
443.8375    -2.66       -69.48      -43.07      -16.92      
443.89375   -2.59       -56.32      -43.49      -16.81      
443.95      -2.62       -60.93      -44.39      -16.94      
444.00625   -2.61       -60.45      -42.58      -16.82      
444.0625    -2.67       -59.89      -42.47      -16.95      
444.11875   -2.64       -64.79      -45.13      -16.91      
444.175     -2.68       -54.17      -45.36      -16.98      
444.23125   -2.59       -59.44      -43.9       -16.91      
444.2875    -2.64       -68.59      -42.92      -16.97      
444.34375   -2.61       -56.66      -42.88      -16.76      
444.4       -2.68       -60.76      -44.21      -16.97      
444.45625   -2.65       -55.02      -44.32      -17.06      
444.5125    -2.68       -57.28      -42.88      -16.88      
444.56875   -2.66       -55.18      -47.6       -16.88      
444.625     -2.66       -63.74      -43.86      -16.92      
444.68125   -2.63       -65.2       -43.69      -16.83      
444.7375    -2.71       -54.13      -42.62      -17.04      
444.79375   -2.67       -51.53      -43.36      -16.89      
444.85      -2.69       -68.23      -43.34      -17.02      
444.90625   -2.67       -51.23      -43.13      -16.88      
444.9625    -2.68       -57.01      -43.19      -16.95      
445.01875   -2.61       -54.96      -42.49      -16.88      
445.075     -2.7        -57.46      -42.77      -17.05      
445.13125   -2.64       -61.81      -43.3       -16.82      
445.1875    -2.67       -57.6       -43.82      -16.87      
445.24375   -2.62       -56.87      -43.83      -16.87      
445.3       -2.63       -64.36      -45.18      -16.83      
445.35625   -2.6        -68.38      -44.95      -16.9       
445.4125    -2.64       -58.01      -43.22      -16.86      
445.46875   -2.52       -59.25      -43.88      -16.87      
445.525     -2.6        -79.22      -42.91      -16.9       
445.58125   -2.52       -59.73      -43.7       -16.73      
445.6375    -2.55       -58.64      -44.46      -16.9       
445.69375   -2.51       -57.8       -42.94      -16.92      
445.75      -2.55       -56.88      -43.79      -16.89      
445.80625   -2.51       -57.41      -44.57      -16.86      
445.8625    -2.52       -60.06      -44.99      -16.92      
445.91875   -2.48       -64.54      -42.06      -16.93      
445.975     -2.46       -58.7       -43.93      -16.93      
446.03125   -2.47       -76.2       -43.57      -16.92      
446.0875    -2.49       -55.9       -42.63      -16.82      
446.14375   -2.41       -55.59      -42.33      -16.91      
446.2       -2.49       -53.79      -43.07      -16.98      
446.25625   -2.43       -60.76      -41.46      -16.93      
446.3125    -2.47       -72.07      -43.79      -16.95      
446.36875   -2.46       -64.01      -41.54      -16.83      
446.425     -2.44       -60.03      -43.27      -16.82      
446.48125   -2.4        -56.77      -43.76      -16.88      
446.5375    -2.48       -66.4       -43.31      -16.8       
446.59375   -2.43       -59.94      -42.48      -16.82      
446.65      -2.45       -62.23      -43.7       -16.9       
446.70625   -2.37       -64.92      -42.18      -16.85      
446.7625    -2.46       -61.33      -42.6       -16.9       
446.81875   -2.41       -57.1       -43.18      -16.85      
446.875     -2.45       -80.83      -43.28      -16.87      
446.93125   -2.43       -56.09      -43.07      -16.89      
446.9875    -2.44       -53.24      -45.58      -16.91      
447.04375   -2.44       -57.01      -43.59      -16.9       
447.1       -2.48       -57.13      -42.58      -17.0       
447.15625   -2.4        -56.07      -43.57      -16.9       
447.2125    -2.45       -58.87      -43.18      -16.85      
447.26875   -2.43       -57.06      -41.74      -16.93      
447.325     -2.48       -61.29      -41.68      -16.93      
447.38125   -2.39       -53.45      -42.59      -16.85      
447.4375    -2.42       -58.32      -42.58      -16.9       
447.49375   -2.44       -62.51      -42.84      -16.85      
447.55      -2.46       -53.24      -45.16      -16.78      
447.60625   -2.43       -58.15      -41.84      -16.93      
447.6625    -2.47       -56.27      -42.97      -16.85      
447.71875   -2.44       -55.78      -42.32      -16.78      
447.775     -2.49       -61.52      -44.25      -16.86      
447.83125   -2.43       -57.95      -41.98      -16.97      
447.8875    -2.44       -52.28      -43.21      -16.88      
447.94375   -2.4        -69.15      -42.59      -16.84      
448.0       -2.47       -56.57      -44.19      -16.74      
448.05625   -2.44       -59.11      -42.52      -16.8       
448.1125    -2.47       -59.87      -43.38      -16.8       
448.16875   -2.43       -56.48      -42.48      -16.93      
448.225     -2.43       -62.58      -42.12      -16.79      
448.28125   -2.44       -58.14      -41.18      -16.9       
448.3375    -2.42       -55.97      -42.92      -16.83      
448.39375   -2.4        -62.14      -42.55      -17.07      
448.45      -2.46       -58.02      -43.86      -16.85      
448.50625   -2.38       -59.13      -43.37      -16.87      
448.5625    -2.46       -58.55      -41.3       -16.85      
448.61875   -2.37       -67.18      -42.08      -16.93      
448.675     -2.42       -60.08      -42.82      -16.82      
448.73125   -2.41       -65.78      -41.88      -16.98      
448.7875    -2.41       -60.28      -43.47      -16.76      
448.84375   -2.39       -65.22      -40.97      -16.89      
448.9       -2.42       -65.74      -42.11      -16.79      
448.95625   -2.35       -61.24      -40.65      -16.97      
449.0125    -2.43       -53.59      -42.89      -16.79      
449.06875   -2.41       -60.98      -42.76      -16.86      
449.125     -2.4        -52.07      -42.86      -16.79      
449.18125   -2.37       -51.97      -41.19      -16.8       
449.2375    -2.43       -54.88      -41.04      -16.87      
449.29375   -2.37       -53.42      -40.59      -16.99      
449.35      -2.4        -57.9       -42.6       -16.8       
449.40625   -2.41       -57.46      -40.17      -16.98      
449.4625    -2.41       -52.02      -45.55      -16.84      
449.51875   -2.34       -56.18      -43.23      -16.86      
449.575     -2.41       -56.65      -43.65      -16.76      
449.63125   -2.36       -59.84      -42.03      -16.81      
449.6875    -2.39       -60.82      -43.43      -16.84      
449.74375   -2.38       -55.32      -41.48      -16.92      
449.8       -2.38       -55.55      -42.23      -16.71      
449.85625   -2.34       -59.39      -42.4       -16.84      
449.9125    -2.39       -58.42      -41.88      -16.84      
449.96875   -2.35       -60.9       -42.37      -16.82      
450.025     -2.39       -61.17      -42.45      -16.81      
450.08125   -2.34       -61.89      -39.86      -16.89      
450.1375    -2.36       -55.73      -41.3       -16.84      
450.19375   -2.42       -73.23      -40.27      -16.92      
450.25      -2.36       -82.85      -41.82      -16.82      
450.30625   -2.35       -60.62      -41.14      -16.93      
450.3625    -2.4        -56.59      -41.41      -16.89      
450.41875   -2.41       -54.38      -41.9       -16.88      
450.475     -2.41       -65.11      -41.2       -16.78      
450.53125   -2.36       -60.77      -41.11      -16.86      
450.5875    -2.38       -57.11      -42.69      -16.89      
450.64375   -2.32       -59.91      -41.16      -16.89      
450.7       -2.34       -60.49      -42.37      -16.82      
450.75625   -2.36       -55.36      -40.96      -16.95      
450.8125    -2.36       -60.98      -41.01      -16.72      
450.86875   -2.35       -61.17      -40.58      -16.94      
450.925     -2.38       -62.8       -41.5       -16.85      
450.98125   -2.36       -61.87      -39.68      -16.86      
451.0375    -2.34       -56.91      -41.01      -16.82      
451.09375   -2.36       -58.95      -39.79      -16.86      
451.15      -2.39       -55.61      -40.31      -16.71      
451.20625   -2.38       -57.02      -39.44      -16.93      
451.2625    -2.37       -58.1       -42.12      -16.83      
451.31875   -2.39       -60.71      -40.76      -16.96      
451.375     -2.37       -60.65      -40.96      -16.76      
451.43125   -2.35       -56.0       -39.31      -16.9       
451.4875    -2.4        -55.31      -42.33      -16.83      
451.54375   -2.36       -57.6       -39.33      -16.95      
451.6       -2.37       -58.46      -40.27      -16.93      
451.65625   -2.37       -68.34      -39.09      -16.93      
451.7125    -2.37       -74.06      -41.76      -16.67      
451.76875   -2.35       -66.59      -40.89      -16.89      
451.825     -2.36       -60.08      -40.89      -16.87      
451.88125   -2.39       -59.24      -39.64      -16.78      
451.9375    -2.39       -56.8       -41.45      -16.79      
451.99375   -2.32       -54.87      -40.08      -16.88      
452.05      -2.41       -56.26      -40.55      -16.75      
452.10625   -2.38       -59.61      -39.56      -16.85      
452.1625    -2.41       -62.01      -41.88      -16.85      
452.21875   -2.33       -57.4       -40.05      -16.93      
452.275     -2.41       -53.99      -40.94      -16.68      
452.33125   -2.38       -58.72      -39.96      -16.95      
452.3875    -2.4        -69.26      -41.53      -16.78      
452.44375   -2.36       -57.86      -39.88      -16.91      
452.5       -2.37       -57.77      -39.96      -16.75      
452.55625   -2.42       -59.37      -40.74      -17.04      
452.6125    -2.44       -56.06      -40.78      -16.73      
452.66875   -2.4        -64.83      -40.92      -16.86      
452.725     -2.42       -56.79      -40.32      -16.8       
452.78125   -2.4        -55.13      -40.01      -16.85      
452.8375    -2.39       -71.85      -41.44      -16.72      
452.89375   -2.37       -53.96      -41.01      -16.85      
452.95      -2.42       -60.86      -40.53      -16.72      
453.00625   -2.39       -58.32      -39.48      -16.87      
453.0625    -2.39       -60.74      -41.32      -16.67      
453.11875   -2.4        -52.12      -39.65      -16.85      
453.175     -2.38       -55.99      -40.28      -16.69      
453.23125   -2.4        -56.77      -38.99      -16.74      
453.2875    -2.43       -64.61      -40.28      -16.73      
453.34375   -2.42       -56.34      -40.48      -16.92      
453.4       -2.37       -64.74      -40.94      -16.66      
453.45625   -2.4        -52.89      -39.12      -16.92      
453.5125    -2.44       -61.35      -40.84      -16.74      
453.56875   -2.39       -55.89      -39.49      -16.89      
453.625     -2.43       -54.04      -39.89      -16.65      
453.68125   -2.42       -61.49      -38.89      -16.86      
453.7375    -2.45       -53.08      -39.13      -16.75      
453.79375   -2.41       -59.72      -38.54      -16.78      
453.85      -2.43       -59.23      -39.21      -16.71      
453.90625   -2.41       -59.25      -38.79      -16.89      
453.9625    -2.42       -61.94      -39.07      -16.67      
454.01875   -2.4        -60.43      -38.32      -16.91      
454.075     -2.41       -56.31      -38.22      -16.71      
454.13125   -2.43       -62.31      -38.05      -16.89      
454.1875    -2.43       -52.64      -38.7       -16.63      
454.24375   -2.41       -56.42      -37.47      -16.79      
454.3       -2.42       -53.11      -38.98      -16.63      
454.35625   -2.45       -58.14      -38.01      -16.79      
454.4125    -2.44       -61.75      -37.63      -16.73      
454.46875   -2.46       -59.61      -38.12      -16.78      
454.525     -2.47       -60.77      -37.24      -16.57      
454.58125   -2.48       -57.16      -36.86      -16.88      
454.6375    -2.48       -74.17      -38.17      -16.73      
454.69375   -2.51       -59.43      -37.82      -16.94      
454.75      -2.49       -62.77      -37.46      -16.7       
454.80625   -2.5        -56.35      -37.43      -16.68      
454.8625    -2.56       -58.19      -38.11      -16.69      
454.91875   -2.53       -63.93      -38.59      -16.89      
454.975     -2.58       -75.33      -38.12      -16.71      
455.03125   -2.59       -57.9       -39.02      -16.8       
455.0875    -2.57       -57.41      -37.93      -16.6       
455.14375   -2.66       -62.13      -39.22      -16.94      
455.2       -2.7        -60.43      -38.9       -16.77      
455.25625   -2.73       -63.4       -37.89      -16.81      
455.3125    -2.73       -53.57      -37.82      -16.55      
455.36875   -2.71       -53.98      -38.16      -16.74      
455.425     -2.63       -57.26      -38.0       -16.7       
455.48125   -2.7        -57.18      -38.11      -16.8       
455.5375    -2.67       -61.8       -38.8       -16.66      
455.59375   -2.64       -55.5       -38.4       -16.87      
455.65      -2.6        -58.91      -39.19      -16.6       
455.70625   -2.61       -56.22      -39.39      -16.77      
455.7625    -2.61       -56.41      -39.37      -16.49      
455.81875   -2.6        -58.65      -37.84      -16.77      
455.875     -2.53       -61.08      -41.4       -16.7       
455.93125   -2.57       -69.83      -39.78      -16.73      
455.9875    -2.57       -60.56      -40.92      -16.89      
456.04375   -2.55       -57.08      -40.13      -16.84      
456.1       -2.52       -54.47      -42.0       -16.68      
456.15625   -2.55       -66.57      -41.21      -16.87      
456.2125    -2.49       -56.52      -41.67      -16.69      
456.26875   -2.51       -55.82      -41.43      -16.73      
456.325     -2.5        -58.89      -42.5       -16.7       
456.38125   -2.5        -55.75      -41.84      -16.81      
456.4375    -2.52       -59.62      -43.82      -16.7       
456.49375   -2.49       -54.21      -42.8       -16.78      
456.55      -2.47       -59.63      -42.12      -16.68      
456.60625   -2.49       -62.12      -41.72      -16.71      
456.6625    -2.48       -73.48      -41.71      -16.73      
456.71875   -2.49       -61.57      -41.97      -16.76      
456.775     -2.5        -76.62      -42.58      -16.7       
456.83125   -2.53       -74.06      -41.93      -16.85      
456.8875    -2.48       -62.18      -40.74      -16.63      
456.94375   -2.5        -64.49      -42.57      -16.9       
457.0       -2.52       -64.05      -39.61      -16.77      
457.05625   -2.52       -52.23      -40.27      -16.83      
457.1125    -2.52       -51.74      -39.05      -16.69      
457.16875   -2.55       -68.99      -39.68      -16.71      
457.225     -2.58       -56.76      -38.13      -16.63      
457.28125   -2.57       -54.3       -39.07      -16.8       
457.3375    -2.59       -53.43      -36.74      -16.71      
457.39375   -2.58       -55.16      -36.56      -16.73      
457.45      -2.65       -59.04      -35.07      -16.56      
457.50625   -2.67       -54.15      -34.07      -16.81      
457.5625    -2.64       -76.44      -32.9       -16.64      
457.61875   -2.69       -58.9       -32.53      -16.85      
457.675     -2.66       -61.39      -30.08      -16.72      
457.73125   -2.74       -55.31      -29.08      -16.72      
457.7875    -2.74       -75.2       -27.4       -16.61      
457.84375   -2.84       -64.27      -25.88      -16.69      
457.9       -2.88       -58.27      -24.25      -16.67      
457.95625   -2.95       -57.82      -23.02      -16.78      
458.0125    -2.94       -55.61      -21.92      -16.62      
458.06875   -3.05       -53.38      -20.97      -16.75      
458.125     -3.12       -55.49      -20.06      -16.55      
458.18125   -3.2        -56.33      -19.44      -16.75      
458.2375    -3.2        -66.49      -19.17      -16.56      
458.29375   -3.29       -58.83      -18.98      -16.75      
458.35      -3.27       -65.14      -18.99      -16.48      
458.40625   -3.36       -70.21      -19.08      -16.63      
458.4625    -3.29       -59.56      -19.53      -16.61      
458.51875   -3.31       -64.89      -19.78      -16.66      
458.575     -3.19       -57.7       -20.48      -16.58      
458.63125   -3.2        -62.24      -21.21      -16.66      
458.6875    -3.05       -59.52      -22.27      -16.6       
458.74375   -3.04       -59.56      -22.97      -16.69      
458.8       -2.96       -57.98      -24.11      -16.58      
458.85625   -2.94       -59.85      -24.96      -16.75      
458.9125    -2.86       -54.59      -25.93      -16.54      
458.96875   -2.81       -57.33      -26.67      -16.68      
459.025     -2.75       -54.25      -28.08      -16.63      
459.08125   -2.79       -86.04      -28.54      -16.74      
459.1375    -2.69       -65.74      -29.51      -16.65      
459.19375   -2.76       -55.12      -30.87      -16.68      
459.25      -2.69       -54.9       -31.42      -16.73      
459.30625   -2.71       -58.04      -33.21      -16.85      
459.3625    -2.65       -54.92      -33.79      -16.57      
459.41875   -2.67       -62.73      -34.96      -16.71      
459.475     -2.66       -63.05      -36.16      -16.56      
459.53125   -2.7        -59.1       -38.44      -16.68      
459.5875    -2.69       -55.56      -37.84      -16.68      
459.64375   -2.7        -55.71      -39.4       -16.8       
459.7       -2.67       -60.82      -40.11      -16.65      
459.75625   -2.71       -67.31      -41.87      -16.68      
459.8125    -2.69       -61.65      -40.25      -16.57      
459.86875   -2.74       -55.36      -42.19      -16.72      
459.925     -2.71       -58.9       -40.14      -16.62      
459.98125   -2.76       -57.3       -39.92      -16.75      
460.0375    -2.75       -58.13      -37.95      -16.59      
460.09375   -2.8        -64.52      -36.76      -16.75      
460.15      -2.8        -62.89      -34.26      -16.63      
460.20625   -2.87       -57.49      -32.54      -16.56      
460.2625    -2.88       -72.9       -30.25      -16.65      
460.31875   -2.94       -55.67      -28.33      -16.66      
460.375     -3.01       -53.71      -25.73      -16.54      
460.43125   -3.15       -60.02      -23.73      -16.7       
460.4875    -3.2        -56.12      -21.08      -16.61      
460.54375   -3.41       -74.82      -18.92      -16.69      
460.6       -3.58       -54.16      -16.73      -16.6       
460.65625   -3.83       -63.14      -14.83      -16.67      
460.7125    -3.99       -66.0       -13.23      -16.56      
460.76875   -4.2        -58.58      -12.25      -16.71      
460.825     -4.38       -62.79      -11.61      -16.6       
460.88125   -4.58       -64.3       -11.33      -16.7       
460.9375    -4.7        -66.27      -11.68      -16.7       
460.99375   -4.61       -52.56      -12.68      -16.62      
461.05      -4.17       -55.01      -14.44      -16.65      
461.10625   -3.8        -56.39      -16.71      -16.68      
461.1625    -3.48       -57.86      -19.28      -16.56      
461.21875   -3.24       -60.82      -22.03      -16.76      
461.275     -3.08       -58.98      -24.63      -16.72      
461.33125   -3.03       -59.65      -27.86      -16.59      
461.3875    -2.97       -57.3       -30.87      -16.63      
461.44375   -2.92       -69.13      -34.34      -16.64      
461.5       -2.89       -56.08      -36.55      -16.65      
461.55625   -2.87       -62.71      -38.55      -16.72      
461.6125    -2.85       -59.15      -36.91      -16.65      
461.66875   -2.85       -61.7       -36.61      -16.63      
461.725     -2.87       -56.25      -33.43      -16.54      
461.78125   -2.9        -57.81      -31.94      -16.67      
461.8375    -2.93       -56.03      -28.97      -16.59      
461.89375   -2.92       -59.57      -27.03      -16.65      
461.95      -3.0        -64.72      -24.67      -16.6       
462.00625   -3.02       -70.4       -22.57      -16.69      
462.0625    -3.12       -63.26      -20.57      -16.64      
462.11875   -3.14       -60.18      -18.75      -16.69      
462.175     -3.21       -69.21      -16.81      -16.59      
462.23125   -3.33       -51.43      -15.08      -16.66      
462.2875    -3.46       -60.09      -13.17      -16.57      
462.34375   -3.63       -67.4       -11.52      -16.68      
462.4       -3.87       -59.4       -9.85       -16.66      
462.45625   -4.12       -62.98      -8.26       -16.57      
462.5125    -4.53       -57.32      -6.61       -16.55      
462.56875   -4.92       -56.43      -5.18       -16.63      
462.625     -5.51       -65.62      -3.71       -16.58      
462.68125   -6.19       -56.17      -2.42       -16.6       
462.7375    -7.23       -58.64      -1.16       -16.58      
462.79375   -8.35       -69.41      -0.06       -16.59      
462.85      -9.97       -52.52      0.86        -16.56      
462.90625   -11.81      -54.93      1.64        -16.68      
462.9625    -14.23      -57.33      2.31        -16.56      
463.01875   -16.59      -58.58      2.82        -16.49      
463.075     -18.95      -62.83      3.24        -16.62      
463.13125   -19.28      -60.65      3.53        -16.64      
463.1875    -18.57      -59.3       3.75        -16.62      
463.24375   -17.18      -56.11      3.94        -16.65      
463.3       -16.2       -54.38      4.12        -16.49      
463.35625   -15.3       -59.11      4.24        -16.61      
463.4125    -14.68      -57.26      4.32        -16.6       
463.46875   -14.28      -52.59      4.41        -16.54      
463.525     -14.05      -72.93      4.5         -16.44      
463.58125   -13.91      -59.19      4.57        -16.59      
463.6375    -13.91      -60.0       4.75        -16.59      
463.69375   -14.09      -62.37      4.8         -16.5       
463.75      -14.27      -56.36      4.87        -16.59      
463.80625   -14.59      -68.47      4.96        -16.61      
463.8625    -14.9       -56.22      5.01        -16.51      
463.91875   -15.28      -56.0       5.06        -16.57      
463.975     -15.91      -54.31      5.14        -16.7       
464.03125   -16.32      -56.95      5.2         -16.53      
464.0875    -16.83      -58.96      5.35        -16.65      
464.14375   -17.17      -73.21      5.34        -16.59      
464.2       -17.58      -57.09      5.4         -16.51      
464.25625   -18.18      -59.33      5.45        -16.6       
464.3125    -18.73      -59.83      5.52        -16.54      
464.36875   -19.01      -55.59      5.55        -16.49      
464.425     -19.2       -58.85      5.57        -16.88      
464.48125   -19.54      -61.96      5.67        -16.53      
464.5375    -19.3       -56.35      5.73        -16.56      
464.59375   -19.35      -58.2       5.7         -16.53      
464.65      -18.88      -64.64      5.74        -16.56      
464.70625   -18.53      -59.51      5.74        -16.5       
464.7625    -18.1       -56.03      5.81        -16.58      
464.81875   -17.63      -63.58      5.78        -16.6       
464.875     -17.03      -63.91      5.82        -16.64      
464.93125   -16.59      -59.55      5.8         -16.52      
464.9875    -16.06      -55.8       5.88        -16.47      
465.04375   -15.78      -59.8       5.81        -16.56      
465.1       -15.33      -62.64      5.85        -16.62      
465.15625   -15.03      -55.62      5.85        -16.59      
465.2125    -14.64      -59.03      5.85        -16.49      
465.26875   -14.41      -58.12      5.84        -16.42      
465.325     -13.98      -64.98      5.84        -16.63      
465.38125   -13.97      -57.74      5.82        -16.54      
465.4375    -13.66      -76.19      5.84        -16.66      
465.49375   -13.47      -61.21      5.83        -16.57      
465.55      -13.26      -58.61      5.87        -16.61      
465.60625   -13.18      -57.26      5.82        -16.51      
465.6625    -12.99      -61.81      5.84        -16.64      
465.71875   -12.94      -63.2       5.81        -16.63      
465.775     -12.82      -52.17      5.84        -16.57      
465.83125   -12.72      -59.34      5.82        -16.47      
465.8875    -12.56      -53.61      5.85        -16.6       
465.94375   -12.68      -65.43      5.81        -16.66      
466.0       -12.51      -58.97      5.86        -16.58      
466.05625   -12.44      -57.25      5.8         -16.55      
466.1125    -12.35      -54.31      5.89        -16.57      
466.16875   -12.41      -59.85      5.88        -16.54      
466.225     -12.36      -66.29      5.85        -16.57      
466.28125   -12.36      -56.41      5.85        -16.53      
466.3375    -12.38      -58.11      5.88        -16.57      
466.39375   -12.4       -61.8       5.87        -16.57      
466.45      -12.42      -57.79      5.93        -16.65      
466.50625   -12.39      -65.06      5.86        -16.51      
466.5625    -12.5       -66.55      5.91        -16.56      
466.61875   -12.54      -64.49      5.92        -16.58      
466.675     -12.6       -57.9       5.91        -16.65      
466.73125   -12.65      -75.64      5.93        -16.53      
466.7875    -12.63      -56.51      5.96        -16.59      
466.84375   -12.78      -53.99      5.94        -16.55      
466.9       -12.79      -57.89      5.97        -16.61      
466.95625   -12.92      -52.65      5.97        -16.49      
467.0125    -13.02      -65.26      6.0         -16.55      
467.06875   -13.06      -53.31      5.98        -16.55      
467.125     -13.15      -57.59      6.01        -16.57      
467.18125   -13.26      -61.46      6.0         -16.47      
467.2375    -13.36      -60.18      6.03        -16.54      
467.29375   -13.44      -52.28      6.09        -16.59      
467.35      -13.55      -59.23      6.09        -16.72      
467.40625   -13.64      -75.89      6.03        -16.57      
467.4625    -13.68      -61.31      6.12        -16.54      
467.51875   -13.82      -65.67      6.09        -16.43      
467.575     -13.91      -56.55      6.13        -16.55      
467.63125   -13.93      -58.28      6.14        -16.56      
467.6875    -13.95      -58.15      6.13        -16.45      
467.74375   -14.1       -61.79      6.14        -16.48      
467.8       -14.19      -53.46      6.19        -16.47      
467.85625   -14.29      -63.77      6.16        -16.55      
467.9125    -14.34      -57.45      6.19        -16.48      
467.96875   -14.3       -67.48      6.16        -16.45      
468.025     -14.44      -79.26      6.19        -16.61      
468.08125   -14.38      -73.96      6.17        -16.44      
468.1375    -14.56      -70.68      6.2         -16.43      
468.19375   -14.46      -53.91      6.17        -16.51      
468.25      -14.6       -64.65      6.17        -16.47      
468.30625   -14.62      -66.7       6.17        -16.47      
468.3625    -14.69      -56.71      6.17        -16.5       
468.41875   -14.66      -60.57      6.19        -16.43      
468.475     -14.7       -59.74      6.16        -16.52      
468.53125   -14.74      -56.93      6.14        -16.54      
468.5875    -14.72      -83.79      6.2         -16.54      
468.64375   -14.67      -61.92      6.16        -16.58      
468.7       -14.7       -56.4       6.15        -16.54      
468.75625   -14.72      -51.47      6.14        -16.45      
468.8125    -14.62      -58.85      6.17        -16.49      
468.86875   -14.62      -57.8       6.16        -16.42      
468.925     -14.68      -62.75      6.16        -16.55      
468.98125   -14.64      -61.5       6.1         -16.44      
469.0375    -14.7       -64.51      6.16        -16.54      
469.09375   -14.66      -59.15      6.13        -16.36      
469.15      -14.6       -66.99      6.17        -16.49      
469.20625   -14.64      -53.37      6.12        -16.4       
469.2625    -14.52      -60.74      6.15        -16.49      
469.31875   -14.55      -62.03      6.11        -16.49      
469.375     -14.55      -66.61      6.14        -16.48      
469.43125   -14.48      -56.17      6.14        -16.52      
469.4875    -14.48      -67.92      6.18        -16.54      
469.54375   -14.54      -60.41      6.14        -16.39      
469.6       -14.58      -54.32      6.13        -16.58      
469.65625   -14.47      -64.45      6.11        -16.47      
469.7125    -14.5       -63.82      6.12        -16.6       
469.76875   -14.42      -56.23      6.12        -16.38      
469.825     -14.53      -59.08      6.11        -16.46      
469.88125   -14.49      -57.59      6.09        -16.41      
469.9375    -14.41      -59.25      6.1         -16.36      
469.99375   -14.41      -58.94      6.12        -16.46      
470.05      -14.43      -57.43      6.09        -16.5       
470.10625   -14.48      -62.69      6.06        -16.47      
470.1625    -14.56      -71.53      6.05        -16.47      
470.21875   -14.53      -57.21      6.07        -16.37      
470.275     -14.62      -64.65      6.08        -16.58      
470.33125   -14.68      -60.8       6.09        -16.4       
470.3875    -14.73      -59.23      6.1         -16.57      
470.44375   -14.74      -55.99      6.07        -16.47      
470.5       -14.67      -60.11      6.08        -16.49      
470.55625   -14.7       -54.87      6.08        -16.42      
470.6125    -14.75      -63.26      6.1         -16.49      
470.66875   -14.73      -78.02      6.08        -16.48      
470.725     -14.71      -55.81      6.1         -16.56      
470.78125   -14.76      -56.97      6.12        -16.4       
470.8375    -14.84      -57.02      6.09        -16.58      
470.89375   -14.85      -58.45      6.05        -16.31      
470.95      -14.97      -70.4       6.05        -16.49      
471.00625   -15.05      -65.42      6.06        -16.31      
471.0625    -15.24      -53.12      6.07        -16.47      
471.11875   -15.26      -70.85      6.05        -16.42      
471.175     -15.25      -58.26      6.05        -16.57      
471.23125   -15.32      -70.0       6.05        -16.47      
471.2875    -15.37      -54.52      6.09        -16.6       
471.34375   -15.47      -68.54      6.06        -16.4       
471.4       -15.65      -64.48      6.08        -16.52      
471.45625   -15.53      -61.58      6.06        -16.45      
471.5125    -15.71      -55.29      6.1         -16.53      
471.56875   -15.7       -53.29      6.12        -16.4       
471.625     -15.83      -65.05      6.1         -16.56      
471.68125   -15.77      -62.08      6.09        -16.48      
471.7375    -15.99      -51.17      6.12        -16.49      
471.79375   -15.9       -57.14      6.08        -16.41      
471.85      -15.87      -58.1       6.13        -16.56      
471.90625   -15.86      -65.73      6.11        -16.41      
471.9625    -16.1       -53.76      6.14        -16.61      
472.01875   -16.0       -55.56      6.13        -16.43      
472.075     -16.01      -58.43      6.16        -16.41      
472.13125   -15.98      -60.24      6.12        -16.4       
472.1875    -16.12      -61.8       6.14        -16.52      
472.24375   -16.16      -55.13      6.15        -16.36      
472.3       -16.15      -55.85      6.16        -16.4       
472.35625   -16.12      -55.58      6.15        -16.43      
472.4125    -16.17      -56.57      6.18        -16.4       
472.46875   -16.27      -59.15      6.15        -16.38      
472.525     -16.26      -57.3       6.18        -16.39      
472.58125   -16.31      -63.01      6.16        -16.34      
472.6375    -16.44      -57.28      6.18        -16.53      
472.69375   -16.21      -51.44      6.15        -16.46      
472.75      -16.13      -56.03      6.18        -16.53      
472.80625   -16.17      -59.82      6.14        -16.32      
472.8625    -16.17      -64.6       6.2         -16.49      
472.91875   -15.99      -59.89      6.14        -16.37      
472.975     -16.08      -59.89      6.2         -16.45      
473.03125   -15.84      -69.77      6.18        -16.38      
473.0875    -15.69      -53.99      6.18        -16.48      
473.14375   -15.66      -64.56      6.16        -16.38      
473.2       -15.69      -65.39      6.19        -16.41      
473.25625   -15.49      -66.37      6.19        -16.41      
473.3125    -15.34      -56.34      6.2         -16.58      
473.36875   -15.33      -64.19      6.13        -16.34      
473.425     -15.29      -64.09      6.19        -16.58      
473.48125   -15.08      -59.72      6.17        -16.41      
473.5375    -15.12      -64.22      6.17        -16.57      
473.59375   -14.86      -59.93      6.14        -16.4       
473.65      -14.78      -57.17      6.19        -16.46      
473.70625   -14.73      -56.06      6.14        -16.41      
473.7625    -14.57      -55.2       6.19        -16.45      
473.81875   -14.53      -58.2       6.15        -16.32      
473.875     -14.48      -61.99      6.18        -16.47      
473.93125   -14.26      -60.26      6.13        -16.39      
473.9875    -14.13      -65.86      6.12        -16.48      
474.04375   -14.0       -56.12      6.12        -16.22      
474.1       -13.92      -54.93      6.14        -16.53      
474.15625   -13.79      -55.83      6.14        -16.39      
474.2125    -13.66      -71.96      6.09        -16.42      
474.26875   -13.48      -58.18      6.07        -16.4       
474.325     -13.46      -58.52      6.15        -16.53      
474.38125   -13.26      -56.75      6.05        -16.42      
474.4375    -13.1       -70.17      6.1         -16.45      
474.49375   -13.06      -59.26      6.0         -16.4       
474.55      -12.87      -61.33      6.07        -16.34      
474.60625   -12.7       -69.79      6.01        -16.38      
474.6625    -12.57      -57.82      6.1         -16.47      
474.71875   -12.54      -55.98      6.02        -16.36      
474.775     -12.4       -58.51      6.04        -16.48      
474.83125   -12.17      -60.97      6.02        -16.33      
474.8875    -12.03      -59.52      6.07        -16.38      
474.94375   -12.0       -69.35      6.02        -16.46      
475.0       -11.88      -54.5       6.02        -16.4       
475.05625   -11.75      -58.45      6.0         -16.35      
475.1125    -11.72      -53.43      5.98        -16.34      
475.16875   -11.51      -56.37      5.94        -16.34      
475.225     -11.48      -65.19      5.92        -16.5       
475.28125   -11.36      -70.41      5.91        -16.44      
475.3375    -11.36      -61.4       5.9         -16.41      
475.39375   -11.1       -62.95      5.91        -16.3       
475.45      -11.13      -55.75      5.9         -16.36      
475.50625   -10.92      -55.24      5.88        -16.41      
475.5625    -10.88      -59.08      5.86        -16.39      
475.61875   -10.81      -57.51      5.8         -16.24      
475.675     -10.77      -68.59      5.84        -16.33      
475.73125   -10.68      -56.08      5.79        -16.39      
475.7875    -10.57      -56.54      5.82        -16.42      
475.84375   -10.51      -57.12      5.76        -16.32      
475.9       -10.37      -57.12      5.76        -16.44      
475.95625   -10.26      -52.95      5.71        -16.34      
476.0125    -10.27      -58.22      5.78        -16.42      
476.06875   -10.1       -56.83      5.73        -16.38      
476.125     -10.15      -54.19      5.72        -16.4       
476.18125   -9.97       -59.9       5.69        -16.37      
476.2375    -9.92       -67.65      5.72        -16.32      
476.29375   -9.86       -60.95      5.66        -16.34      
476.35      -9.82       -63.23      5.7         -16.41      
476.40625   -9.71       -57.14      5.67        -16.39      
476.4625    -9.72       -60.04      5.68        -16.33      
476.51875   -9.7        -69.6       5.65        -16.48      
476.575     -9.61       -56.98      5.66        -16.44      
476.63125   -9.59       -60.47      5.64        -16.26      
476.6875    -9.5        -66.74      5.63        -16.28      
476.74375   -9.46       -65.1       5.57        -16.36      
476.8       -9.52       -67.48      5.6         -16.39      
476.85625   -9.34       -58.32      5.56        -16.43      
476.9125    -9.44       -56.07      5.55        -16.33      
476.96875   -9.27       -68.32      5.53        -16.25      
477.025     -9.29       -68.23      5.54        -16.29      
477.08125   -9.18       -58.19      5.53        -16.32      
477.1375    -9.23       -68.49      5.52        -16.34      
477.19375   -9.15       -63.25      5.49        -16.37      
477.25      -9.18       -60.7       5.49        -16.42      
477.30625   -9.12       -57.33      5.46        -16.34      
477.3625    -9.19       -62.35      5.5         -16.36      
477.41875   -9.07       -53.78      5.48        -16.33      
477.475     -9.13       -51.14      5.49        -16.31      
477.53125   -9.0        -62.1       5.49        -16.32      
477.5875    -9.07       -55.95      5.5         -16.32      
477.64375   -9.0        -61.41      5.46        -16.29      
477.7       -9.09       -66.13      5.49        -16.22      
477.75625   -9.05       -60.92      5.39        -16.35      
477.8125    -9.06       -63.35      5.46        -16.3       
477.86875   -8.89       -63.03      5.42        -16.44      
477.925     -9.0        -59.47      5.49        -16.43      
477.98125   -8.94       -61.35      5.42        -16.34      
478.0375    -9.07       -58.35      5.46        -16.34      
478.09375   -8.97       -54.93      5.42        -16.31      
478.15      -9.05       -61.98      5.45        -16.34      
478.20625   -9.0        -71.75      5.41        -16.35      
478.2625    -9.06       -53.45      5.46        -16.35      
478.31875   -8.97       -62.67      5.38        -16.43      
478.375     -9.11       -63.72      5.43        -16.31      
478.43125   -9.02       -56.87      5.42        -16.34      
478.4875    -9.14       -57.98      5.42        -16.27      
478.54375   -9.06       -56.66      5.4         -16.37      
478.6       -9.18       -56.81      5.42        -16.26      
478.65625   -9.1        -62.84      5.39        -16.32      
478.7125    -9.17       -52.11      5.41        -16.32      
478.76875   -9.11       -55.7       5.43        -16.4       
478.825     -9.21       -65.57      5.44        -16.39      
478.88125   -9.18       -56.78      5.4         -16.35      
478.9375    -9.23       -60.56      5.47        -16.22      
478.99375   -9.19       -75.05      5.44        -16.24      
479.05      -9.29       -58.18      5.49        -16.28      
479.10625   -9.32       -61.03      5.43        -16.37      
479.1625    -9.39       -61.6       5.49        -16.32      
479.21875   -9.34       -66.92      5.42        -16.46      
479.275     -9.46       -75.9       5.51        -16.22      
479.33125   -9.4        -53.67      5.5         -16.33      
479.3875    -9.59       -70.53      5.46        -16.33      
479.44375   -9.54       -60.78      5.48        -16.44      
479.5       -9.66       -54.3       5.49        -16.35      
479.55625   -9.68       -69.89      5.47        -16.38      
479.6125    -9.77       -55.94      5.52        -16.25      
479.66875   -9.79       -68.73      5.51        -16.29      
479.725     -9.94       -57.82      5.52        -16.31      
479.78125   -9.89       -65.69      5.51        -16.34      
479.8375    -10.04      -61.34      5.56        -16.37      
479.89375   -10.05      -60.69      5.52        -16.4       
479.95      -10.22      -60.71      5.56        -16.43      
480.00625   -10.18      -65.95      5.51        -16.36      
480.0625    -10.3       -65.79      5.58        -16.25      
480.11875   -10.3       -58.37      5.57        -16.32      
480.175     -10.45      -57.13      5.58        -16.43      
480.23125   -10.43      -65.0       5.6         -16.47      
480.2875    -10.64      -64.4       5.59        -16.33      
480.34375   -10.57      -59.76      5.61        -16.34      
480.4       -10.77      -54.41      5.66        -16.34      
480.45625   -10.7       -61.38      5.64        -16.36      
480.5125    -10.91      -64.33      5.7         -16.28      
480.56875   -10.9       -53.21      5.65        -16.39      
480.625     -11.05      -62.47      5.69        -16.22      
480.68125   -11.13      -57.05      5.67        -16.3       
480.7375    -11.27      -53.74      5.73        -16.21      
480.79375   -11.28      -62.5       5.71        -16.33      
480.85      -11.42      -58.0       5.77        -16.3       
480.90625   -11.46      -67.83      5.7         -16.37      
480.9625    -11.68      -59.87      5.73        -16.27      
481.01875   -11.77      -60.57      5.73        -16.31      
481.075     -12.01      -66.18      5.77        -16.3       
481.13125   -12.02      -58.03      5.77        -16.31      
481.1875    -12.21      -57.86      5.82        -16.34      
481.24375   -12.23      -61.55      5.76        -16.31      
481.3       -12.45      -56.63      5.77        -16.22      
481.35625   -12.44      -79.87      5.81        -16.39      
481.4125    -12.71      -60.77      5.86        -16.24      
481.46875   -12.7       -63.45      5.84        -16.45      
481.525     -13.02      -75.7       5.88        -16.11      
481.58125   -12.92      -60.56      5.84        -16.35      
481.6375    -13.18      -55.32      5.88        -16.18      
481.69375   -13.11      -61.81      5.87        -16.34      
481.75      -13.4       -77.38      5.86        -16.39      
481.80625   -13.35      -53.27      5.88        -16.44      
481.8625    -13.55      -58.34      5.9         -16.22      
481.91875   -13.61      -61.47      5.9         -16.36      
481.975     -13.82      -59.83      5.94        -16.28      
482.03125   -13.89      -54.06      5.91        -16.41      
482.0875    -13.95      -66.8       5.95        -16.29      
482.14375   -14.1       -56.3       5.94        -16.33      
482.2       -14.21      -69.57      5.95        -16.16      
482.25625   -14.07      -62.21      5.91        -16.33      
482.3125    -14.35      -56.61      5.95        -16.18      
482.36875   -14.26      -58.13      5.89        -16.3       
482.425     -14.43      -76.58      5.91        -16.16      
482.48125   -14.47      -55.58      5.87        -16.3       
482.5375    -14.58      -54.09      5.88        -16.36      
482.59375   -14.58      -73.18      5.87        -16.37      
482.65      -14.69      -74.57      5.88        -16.27      
482.70625   -14.56      -60.36      5.83        -16.3       
482.7625    -14.73      -54.27      5.86        -16.27      
482.81875   -14.57      -68.35      5.82        -16.29      
482.875     -14.65      -61.7       5.85        -16.32      
482.93125   -14.41      -54.33      5.82        -16.38      
482.9875    -14.57      -54.4       5.85        -16.34      
483.04375   -14.27      -54.65      5.83        -16.32      
483.1       -14.39      -58.93      5.86        -16.24      
483.15625   -14.26      -61.37      5.82        -16.36      
483.2125    -14.31      -69.42      5.84        -16.21      
483.26875   -14.16      -70.49      5.77        -16.4       
483.325     -14.18      -69.56      5.82        -16.17      
483.38125   -14.01      -60.78      5.76        -16.33      
483.4375    -14.1       -57.16      5.79        -16.29      
483.49375   -13.92      -58.28      5.75        -16.47      
483.55      -13.97      -71.41      5.74        -16.23      
483.60625   -13.74      -63.2       5.69        -16.4       
483.6625    -13.85      -55.75      5.74        -16.15      
483.71875   -13.68      -67.53      5.67        -16.35      
483.775     -13.8       -64.9       5.66        -16.18      
483.83125   -13.59      -63.7       5.66        -16.28      
483.8875    -13.69      -59.33      5.64        -16.24      
483.94375   -13.49      -57.92      5.61        -16.34      
484.0       -13.57      -57.64      5.62        -16.22      
484.05625   -13.33      -53.23      5.57        -16.34      
484.1125    -13.37      -57.85      5.59        -16.29      
484.16875   -13.21      -62.52      5.54        -16.42      
484.225     -13.2       -56.94      5.56        -16.34      
484.28125   -13.17      -62.33      5.51        -16.48      
484.3375    -13.25      -58.46      5.52        -16.18      
484.39375   -12.98      -63.34      5.48        -16.48      
484.45      -13.1       -55.33      5.5         -16.23      
484.50625   -12.84      -59.09      5.43        -16.38      
484.5625    -12.9       -70.22      5.46        -16.29      
484.61875   -12.78      -69.52      5.39        -16.34      
484.675     -12.96      -64.92      5.45        -16.27      
484.73125   -12.85      -58.32      5.39        -16.48      
484.7875    -12.9       -52.14      5.4         -16.16      
484.84375   -12.84      -61.84      5.39        -16.45      
484.9       -12.97      -60.3       5.43        -16.28      
484.95625   -12.89      -61.01      5.35        -16.31      
485.0125    -13.03      -59.28      5.38        -16.16      
485.06875   -12.83      -59.71      5.35        -16.3       
485.125     -13.02      -61.43      5.34        -16.2       
485.18125   -12.85      -57.97      5.31        -16.37      
485.2375    -13.06      -54.8       5.33        -16.28      
485.29375   -13.01      -62.73      5.27        -16.24      
485.35      -13.18      -58.96      5.28        -16.24      
485.40625   -13.18      -54.97      5.22        -16.42      
485.4625    -13.37      -54.88      5.23        -16.25      
485.51875   -13.36      -58.13      5.19        -16.24      
485.575     -13.52      -60.76      5.2         -16.23      
485.63125   -13.46      -58.65      5.16        -16.32      
485.6875    -13.69      -53.35      5.21        -16.23      
485.74375   -13.71      -54.68      5.2         -16.37      
485.8       -13.9       -58.47      5.25        -16.26      
485.85625   -14.05      -56.95      5.18        -16.37      
485.9125    -14.25      -61.49      5.23        -16.24      
485.96875   -14.32      -51.58      5.18        -16.32      
486.025     -14.63      -60.69      5.18        -16.22      
486.08125   -14.79      -54.71      5.14        -16.27      
486.1375    -15.09      -60.16      5.17        -16.19      
486.19375   -15.41      -66.07      5.08        -16.39      
486.25      -15.75      -64.74      5.11        -16.31      
486.30625   -15.95      -54.97      5.07        -16.39      
486.3625    -16.43      -54.78      5.06        -16.31      
486.41875   -16.72      -55.8       4.99        -16.46      
486.475     -17.04      -60.63      5.04        -16.27      
486.53125   -17.37      -71.62      4.94        -16.26      
486.5875    -17.89      -55.63      5.0         -16.29      
486.64375   -18.58      -67.62      4.97        -16.39      
486.7       -19.38      -57.91      4.99        -16.28      
486.75625   -19.93      -56.36      4.9         -16.35      
486.8125    -20.68      -57.88      4.93        -16.16      
486.86875   -21.5       -58.52      4.86        -16.44      
486.925     -22.58      -59.42      4.89        -16.2       
486.98125   -23.58      -68.14      4.82        -16.44      
487.0375    -24.83      -61.12      4.83        -16.17      
487.09375   -25.98      -63.12      4.7         -16.28      
487.15      -27.73      -59.87      4.71        -16.12      
487.20625   -28.94      -66.73      4.66        -16.49      
487.2625    -30.4       -60.53      4.64        -16.16      
487.31875   -29.24      -58.86      4.6         -16.31      
487.375     -29.45      -61.64      4.58        -16.19      
487.43125   -27.39      -54.82      4.52        -16.35      
487.4875    -26.13      -57.33      4.51        -16.29      
487.54375   -24.06      -55.1       4.42        -16.28      
487.6       -23.08      -55.97      4.43        -16.26      
487.65625   -21.39      -52.55      4.33        -16.35      
487.7125    -20.36      -69.39      4.35        -16.23      
487.76875   -19.09      -56.52      4.23        -16.3       
487.825     -18.33      -63.01      4.15        -16.15      
487.88125   -17.11      -55.7       4.11        -16.33      
487.9375    -16.45      -66.12      4.07        -16.24      
487.99375   -15.48      -54.13      3.98        -16.27      
488.05      -14.82      -57.76      3.85        -16.26      
488.10625   -13.95      -57.44      3.77        -16.3       
488.1625    -13.43      -63.27      3.68        -16.23      
488.21875   -12.67      -56.54      3.53        -16.29      
488.275     -12.24      -59.29      3.49        -16.23      
488.33125   -11.65      -54.29      3.3         -16.38      
488.3875    -11.29      -67.71      3.23        -16.11      
488.44375   -10.7       -56.52      3.05        -16.3       
488.5       -10.43      -66.32      2.97        -16.17      
488.55625   -9.87       -61.63      2.84        -16.39      
488.6125    -9.64       -71.6       2.73        -16.26      
488.66875   -9.21       -55.76      2.59        -16.56      
488.725     -8.9        -57.69      2.48        -16.23      
488.78125   -8.48       -60.44      2.24        -16.31      
488.8375    -8.27       -56.09      2.15        -16.29      
488.89375   -7.91       -55.71      1.97        -16.36      
488.95      -7.68       -69.06      1.83        -16.2       
489.00625   -7.34       -56.89      1.59        -16.4       
489.0625    -7.18       -73.83      1.49        -16.29      
489.11875   -6.89       -56.65      1.28        -16.39      
489.175     -6.74       -59.63      1.15        -16.27      
489.23125   -6.44       -72.2       0.92        -16.3       
489.2875    -6.3        -64.16      0.76        -16.2       
489.34375   -6.13       -62.23      0.57        -16.27      
489.4       -5.98       -62.02      0.4         -16.19      
489.45625   -5.75       -59.13      0.21        -16.25      
489.5125    -5.61       -64.58      0.08        -16.18      
489.56875   -5.38       -57.3       -0.14       -16.39      
489.625     -5.25       -61.16      -0.35       -16.28      
489.68125   -5.03       -62.1       -0.56       -16.4       
489.7375    -4.96       -59.83      -0.77       -16.18      
489.79375   -4.79       -63.91      -0.99       -16.46      
489.85      -4.77       -58.54      -1.2        -16.25      
489.90625   -4.57       -58.21      -1.46       -16.33      
489.9625    -4.54       -63.56      -1.64       -16.19      
490.01875   -4.37       -67.18      -1.87       -16.41      
490.075     -4.37       -59.74      -2.06       -16.26      
490.13125   -4.2        -57.01      -2.26       -16.3       
490.1875    -4.14       -58.61      -2.45       -16.22      
490.24375   -4.03       -62.31      -2.67       -16.24      
490.3       -4.0        -72.45      -2.86       -16.13      
490.35625   -3.87       -56.63      -3.1        -16.29      
490.4125    -3.82       -62.27      -3.26       -16.28      
490.46875   -3.77       -65.02      -3.51       -16.32      
490.525     -3.73       -58.49      -3.67       -16.31      
490.58125   -3.64       -53.14      -3.94       -16.35      
490.6375    -3.63       -60.14      -4.14       -16.19      
490.69375   -3.53       -54.69      -4.41       -16.4       
490.75      -3.47       -59.66      -4.61       -16.27      
490.80625   -3.42       -59.48      -4.84       -16.38      
490.8625    -3.4        -69.8       -5.0        -16.25      
490.91875   -3.34       -62.28      -5.25       -16.37      
490.975     -3.33       -53.07      -5.44       -16.22      
491.03125   -3.21       -63.72      -5.65       -16.25      
491.0875    -3.19       -59.11      -5.84       -16.2       
491.14375   -3.15       -61.66      -6.05       -16.31      
491.2       -3.15       -66.52      -6.25       -16.12      
491.25625   -3.09       -64.18      -6.45       -16.34      
491.3125    -3.11       -60.63      -6.65       -16.24      
491.36875   -3.04       -63.78      -6.89       -16.28      
491.425     -3.06       -58.33      -7.06       -16.29      
491.48125   -2.96       -57.34      -7.26       -16.3       
491.5375    -2.98       -68.5       -7.45       -16.31      
491.59375   -2.92       -59.06      -7.68       -16.3       
491.65      -2.89       -57.63      -7.89       -16.26      
491.70625   -2.86       -63.07      -8.12       -16.32      
491.7625    -2.9        -56.48      -8.28       -16.26      
491.81875   -2.79       -61.42      -8.48       -16.31      
491.875     -2.81       -69.81      -8.65       -16.2       
491.93125   -2.81       -64.52      -8.88       -16.31      
491.9875    -2.75       -68.69      -9.03       -16.3       
492.04375   -2.72       -59.42      -9.29       -16.38      
492.1       -2.73       -58.81      -9.48       -16.29      
492.15625   -2.68       -60.55      -9.64       -16.28      
492.2125    -2.71       -53.88      -9.86       -16.24      
492.26875   -2.69       -60.17      -10.05      -16.36      
492.325     -2.7        -68.86      -10.26      -16.33      
492.38125   -2.62       -59.61      -10.46      -16.24      
492.4375    -2.63       -57.2       -10.59      -16.28      
492.49375   -2.6        -60.15      -10.83      -16.27      
492.55      -2.59       -58.77      -10.99      -16.34      
492.60625   -2.54       -56.2       -11.18      -16.42      
492.6625    -2.53       -59.73      -11.39      -16.26      
492.71875   -2.56       -57.18      -11.57      -16.34      
492.775     -2.58       -55.4       -11.75      -16.25      
492.83125   -2.53       -58.54      -11.95      -16.28      
492.8875    -2.56       -55.7       -12.16      -16.37      
492.94375   -2.52       -56.96      -12.45      -16.32      
493.0       -2.53       -55.63      -12.54      -16.22      
493.05625   -2.48       -62.82      -12.72      -16.35      
493.1125    -2.5        -65.99      -12.9       -16.12      
493.16875   -2.45       -55.07      -13.11      -16.3       
493.225     -2.43       -71.45      -13.25      -16.24      
493.28125   -2.43       -59.23      -13.41      -16.31      
493.3375    -2.46       -61.7       -13.67      -16.29      
493.39375   -2.41       -55.08      -13.82      -16.24      
493.45      -2.37       -64.41      -14.06      -16.22      
493.50625   -2.44       -60.16      -14.17      -16.27      
493.5625    -2.41       -63.43      -14.42      -16.32      
493.61875   -2.37       -60.7       -14.6       -16.35      
493.675     -2.37       -62.45      -14.73      -16.29      
493.73125   -2.39       -59.2       -14.91      -16.41      
493.7875    -2.37       -58.52      -15.07      -16.29      
493.84375   -2.4        -60.24      -15.27      -16.4       
493.9       -2.38       -60.75      -15.38      -16.3       
493.95625   -2.39       -64.4       -15.61      -16.26      
494.0125    -2.35       -62.6       -15.75      -16.46      
494.06875   -2.34       -58.48      -15.96      -16.3       
494.125     -2.4        -55.24      -16.16      -16.23      
494.18125   -2.34       -62.65      -16.27      -16.31      
494.2375    -2.34       -78.94      -16.44      -16.21      
494.29375   -2.33       -56.15      -16.65      -16.29      
494.35      -2.38       -57.49      -16.78      -16.28      
494.40625   -2.33       -60.75      -16.97      -16.36      
494.4625    -2.31       -66.66      -17.17      -16.26      
494.51875   -2.31       -61.63      -17.39      -16.33      
494.575     -2.28       -60.31      -17.47      -16.32      
494.63125   -2.27       -55.98      -17.78      -16.31      
494.6875    -2.31       -61.51      -17.81      -16.24      
494.74375   -2.27       -56.09      -18.13      -16.23      
494.8       -2.26       -57.3       -18.25      -16.27      
494.85625   -2.27       -54.74      -18.28      -16.21      
494.9125    -2.25       -59.71      -18.53      -16.35      
494.96875   -2.28       -54.01      -18.74      -16.33      
495.025     -2.28       -57.73      -18.89      -16.39      
495.08125   -2.27       -54.79      -19.19      -16.23      
495.1375    -2.26       -59.98      -19.16      -16.38      
495.19375   -2.24       -52.29      -19.45      -16.21      
495.25      -2.23       -61.91      -19.56      -16.36      
495.30625   -2.24       -54.23      -19.89      -16.19      
495.3625    -2.23       -64.56      -19.98      -16.28      
495.41875   -2.24       -63.18      -20.32      -16.27      
495.475     -2.26       -65.06      -20.29      -16.24      
495.53125   -2.24       -63.29      -20.55      -16.32      
495.5875    -2.24       -53.61      -20.53      -16.43      
495.64375   -2.19       -66.48      -20.93      -16.2       
495.7       -2.22       -59.15      -20.97      -16.44      
495.75625   -2.26       -62.76      -21.34      -16.26      
495.8125    -2.25       -58.39      -21.37      -16.38      
495.86875   -2.2        -54.23      -21.61      -16.26      
495.925     -2.22       -61.35      -21.74      -16.33      
495.98125   -2.25       -53.59      -21.98      -16.29      
496.0375    -2.22       -61.15      -22.03      -16.32      
496.09375   -2.2        -61.38      -22.44      -16.21      
496.15      -2.23       -57.97      -22.59      -16.31      
496.20625   -2.26       -55.0       -22.85      -16.35      
496.2625    -2.18       -59.36      -22.87      -16.46      
496.31875   -2.24       -60.77      -23.02      -16.27      
496.375     -2.22       -57.44      -23.22      -16.47      
496.43125   -2.18       -57.73      -23.49      -16.27      
496.4875    -2.21       -54.48      -23.32      -16.32      
496.54375   -2.18       -54.03      -23.81      -16.25      
496.6       -2.16       -68.52      -23.91      -16.36      
496.65625   -2.17       -58.51      -24.01      -16.26      
496.7125    -2.21       -68.0       -24.05      -16.28      
496.76875   -2.2        -67.15      -24.3       -16.31      
496.825     -2.23       -57.85      -24.25      -16.36      
496.88125   -2.22       -68.56      -24.63      -16.23      
496.9375    -2.22       -64.29      -24.53      -16.47      
496.99375   -2.2        -79.98      -25.02      -16.19      
497.05      -2.18       -62.26      -25.0       -16.39      
497.10625   -2.25       -63.27      -25.22      -16.1       
497.1625    -2.21       -62.49      -25.17      -16.43      
497.21875   -2.22       -55.23      -25.52      -16.26      
497.275     -2.18       -58.8       -25.24      -16.41      
497.33125   -2.18       -55.5       -25.66      -16.29      
497.3875    -2.17       -61.53      -25.59      -16.43      
497.44375   -2.16       -59.22      -25.83      -16.28      
497.5       -2.21       -62.51      -25.93      -16.4       
497.55625   -2.18       -56.25      -26.05      -16.34      
497.6125    -2.17       -56.06      -26.11      -16.31      
497.66875   -2.18       -54.26      -26.76      -16.25      
497.725     -2.19       -78.02      -26.34      -16.35      
497.78125   -2.18       -54.5       -26.79      -16.47      
497.8375    -2.18       -55.51      -26.39      -16.36      
497.89375   -2.18       -57.36      -26.69      -16.25      
497.95      -2.16       -60.59      -26.69      -16.38      
498.00625   -2.18       -67.13      -26.99      -16.38      
498.0625    -2.16       -55.61      -26.88      -16.38      
498.11875   -2.18       -63.49      -27.17      -16.34      
498.175     -2.15       -57.17      -26.96      -16.4       
498.23125   -2.18       -53.26      -27.48      -16.33      
498.2875    -2.22       -57.12      -27.22      -16.41      
498.34375   -2.22       -61.12      -27.54      -16.42      
498.4       -2.18       -59.59      -27.08      -16.33      
498.45625   -2.18       -56.56      -27.42      -16.38      
498.5125    -2.18       -55.35      -27.33      -16.42      
498.56875   -2.22       -56.08      -27.63      -16.37      
498.625     -2.2        -61.97      -27.65      -16.33      
498.68125   -2.17       -61.31      -28.09      -16.37      
498.7375    -2.19       -61.24      -27.93      -16.37      
498.79375   -2.17       -55.32      -28.19      -16.41      
498.85      -2.18       -59.6       -27.63      -16.44      
498.90625   -2.14       -53.41      -28.05      -16.35      
498.9625    -2.12       -57.04      -27.57      -16.3       
499.01875   -2.19       -63.1       -28.06      -16.4       
499.075     -2.16       -58.01      -27.9       -16.5       
499.13125   -2.14       -56.95      -28.35      -16.34      
499.1875    -2.15       -57.72      -28.63      -16.36      
499.24375   -2.11       -56.31      -29.01      -16.36      
499.3       -2.19       -53.77      -28.6       -16.36      
499.35625   -2.18       -53.49      -29.21      -16.4       
499.4125    -2.14       -62.58      -28.56      -16.44      
499.46875   -2.15       -64.0       -28.89      -16.25      
499.525     -2.18       -82.7       -28.36      -16.51      
499.58125   -2.13       -72.69      -28.88      -16.27      
499.6375    -2.17       -57.08      -28.64      -16.3       
499.69375   -2.19       -56.88      -28.66      -16.22      
499.75      -2.14       -56.28      -28.57      -16.37      
499.80625   -2.13       -69.1       -28.96      -16.34      
499.8625    -2.14       -56.67      -29.0       -16.39      
499.91875   -2.13       -61.4       -29.51      -16.41      
499.975     -2.19       -59.67      -29.43      -16.36      
500.03125   -2.17       -59.06      -30.15      -16.32      
500.0875    -2.15       -55.17      -29.57      -16.41      
500.14375   -2.15       -58.57      -29.87      -16.31      
500.2       -2.14       -56.47      -30.16      -16.38      
500.25625   -2.13       -76.98      -29.74      -16.41      
500.3125    -2.14       -55.78      -29.71      -16.33      
500.36875   -2.15       -52.58      -30.09      -16.32      
500.425     -2.17       -66.3       -29.92      -16.33      
500.48125   -2.12       -59.88      -30.36      -16.42      
500.5375    -2.13       -60.16      -30.12      -16.27      
500.59375   -2.14       -59.23      -30.52      -16.41      
500.65      -2.12       -58.51      -30.2       -16.43      
500.70625   -2.12       -57.32      -30.7       -16.45      
500.7625    -2.15       -59.03      -30.28      -16.45      
500.81875   -2.13       -72.71      -31.18      -16.39      
500.875     -2.18       -58.16      -30.89      -16.47      
500.93125   -2.13       -54.57      -30.8       -16.43      
500.9875    -2.19       -61.72      -30.46      -16.33      
501.04375   -2.11       -56.59      -30.93      -16.48      
501.1       -2.16       -74.83      -30.61      -16.36      
501.15625   -2.16       -61.8       -30.76      -16.35      
501.2125    -2.15       -55.56      -30.74      -16.33      
501.26875   -2.11       -54.53      -31.03      -16.38      
501.325     -2.11       -66.03      -30.97      -16.3       
501.38125   -2.09       -59.13      -31.48      -16.42      
501.4375    -2.14       -60.77      -30.89      -16.22      
501.49375   -2.12       -57.5       -31.45      -16.47      
501.55      -2.12       -54.52      -31.21      -16.38      
501.60625   -2.1        -56.89      -31.21      -16.44      
501.6625    -2.15       -54.79      -31.88      -16.37      
501.71875   -2.12       -66.5       -31.56      -16.41      
501.775     -2.17       -58.12      -32.2       -16.45      
501.83125   -2.12       -60.79      -32.17      -16.4       
501.8875    -2.13       -52.54      -32.14      -16.37      
501.94375   -2.13       -52.24      -32.33      -16.31      
502.0       -2.16       -54.36      -32.02      -16.42      
502.05625   -2.1        -58.5       -32.12      -16.45      
502.1125    -2.16       -63.2       -32.22      -16.37      
502.16875   -2.15       -54.33      -31.75      -16.34      
502.225     -2.19       -57.97      -31.86      -16.36      
502.28125   -2.12       -56.43      -31.83      -16.48      
502.3375    -2.13       -68.55      -32.08      -16.39      
502.39375   -2.13       -58.0       -31.86      -16.38      
502.45      -2.17       -64.69      -32.25      -16.51      
502.50625   -2.14       -65.57      -32.82      -16.44      
502.5625    -2.12       -56.66      -32.95      -16.38      
502.61875   -2.13       -56.23      -33.25      -16.48      
502.675     -2.15       -56.72      -32.51      -16.46      
502.73125   -2.12       -58.48      -33.03      -16.4       
502.7875    -2.11       -66.05      -33.08      -16.39      
502.84375   -2.11       -63.64      -32.89      -16.54      
502.9       -2.15       -59.1       -32.79      -16.47      
502.95625   -2.13       -61.29      -32.84      -16.34      
503.0125    -2.16       -58.24      -33.48      -16.56      
503.06875   -2.14       -59.34      -33.18      -16.48      
503.125     -2.12       -59.82      -32.75      -16.37      
503.18125   -2.11       -56.27      -33.2       -16.33      
503.2375    -2.14       -56.17      -32.79      -16.42      
503.29375   -2.15       -62.46      -33.74      -16.42      
503.35      -2.17       -60.36      -33.42      -16.39      
503.40625   -2.16       -57.27      -33.19      -16.44      
503.4625    -2.15       -59.72      -33.33      -16.39      
503.51875   -2.12       -62.87      -33.02      -16.49      
503.575     -2.18       -57.08      -32.69      -16.38      
503.63125   -2.13       -55.18      -33.2       -16.39      
503.6875    -2.19       -60.84      -32.87      -16.53      
503.74375   -2.16       -56.05      -32.93      -16.45      
503.8       -2.15       -57.19      -32.85      -16.4       
503.85625   -2.2        -61.75      -33.26      -16.56      
503.9125    -2.16       -54.41      -33.04      -16.38      
503.96875   -2.1        -55.94      -33.34      -16.45      
504.025     -2.19       -54.77      -33.68      -16.37      
504.08125   -2.13       -57.81      -33.22      -16.42      
504.1375    -2.21       -56.31      -33.6       -16.43      
504.19375   -2.16       -58.58      -34.16      -16.49      
504.25      -2.18       -55.53      -33.71      -16.36      
504.30625   -2.11       -54.23      -33.82      -16.54      
504.3625    -2.18       -54.88      -34.01      -16.41      
504.41875   -2.12       -54.77      -33.97      -16.49      
504.475     -2.19       -63.71      -34.15      -16.43      
504.53125   -2.16       -59.21      -33.49      -16.46      
504.5875    -2.16       -63.32      -33.89      -16.45      
504.64375   -2.17       -69.8       -34.0       -16.4       
504.7       -2.23       -58.77      -34.08      -16.37      
504.75625   -2.21       -61.36      -33.38      -16.58      
504.8125    -2.2        -57.92      -34.04      -16.25      
504.86875   -2.18       -59.62      -34.02      -16.38      
504.925     -2.22       -57.66      -33.19      -16.38      
504.98125   -2.21       -55.0       -33.83      -16.45      
505.0375    -2.2        -61.88      -34.04      -16.35      
505.09375   -2.2        -59.94      -33.82      -16.51      
505.15      -2.25       -64.12      -34.05      -16.33      
505.20625   -2.21       -59.51      -34.13      -16.51      
505.2625    -2.19       -54.19      -34.0       -16.38      
505.31875   -2.17       -53.71      -34.34      -16.57      
505.375     -2.21       -62.49      -34.12      -16.38      
505.43125   -2.2        -55.91      -34.76      -16.49      
505.4875    -2.23       -54.62      -34.33      -16.57      
505.54375   -2.19       -56.19      -33.9       -16.65      
505.6       -2.22       -58.33      -33.63      -16.49      
505.65625   -2.24       -70.88      -33.74      -16.58      
505.7125    -2.25       -75.17      -33.26      -16.45      
505.76875   -2.18       -58.98      -33.52      -16.55      
505.825     -2.22       -62.17      -33.95      -16.43      
505.88125   -2.23       -63.08      -33.74      -16.54      
505.9375    -2.24       -64.38      -33.96      -16.42      
505.99375   -2.23       -57.42      -33.88      -16.6       
506.05      -2.24       -70.79      -33.71      -16.43      
506.10625   -2.2        -51.26      -33.06      -16.6       
506.1625    -2.26       -57.68      -34.15      -16.43      
506.21875   -2.26       -57.89      -33.64      -16.56      
506.275     -2.29       -57.06      -34.19      -16.35      
506.33125   -2.21       -55.87      -33.83      -16.43      
506.3875    -2.31       -62.92      -33.92      -16.61      
506.44375   -2.25       -58.39      -33.7       -16.5       
506.5       -2.27       -68.85      -34.03      -16.51      
506.55625   -2.23       -52.24      -33.6       -16.46      
506.6125    -2.28       -76.0       -34.65      -16.46      
506.66875   -2.21       -60.8       -34.28      -16.55      
506.725     -2.32       -54.77      -34.27      -16.42      
506.78125   -2.27       -57.0       -34.79      -16.45      
506.8375    -2.29       -66.08      -34.78      -16.5       
506.89375   -2.27       -59.69      -33.93      -16.6       
506.95      -2.32       -70.87      -34.82      -16.45      
507.00625   -2.28       -57.14      -33.85      -16.61      
507.0625    -2.34       -55.5       -33.73      -16.48      
507.11875   -2.31       -56.39      -32.93      -16.53      
507.175     -2.33       -56.75      -33.23      -16.36      
507.23125   -2.32       -58.19      -32.92      -16.49      
507.2875    -2.35       -63.11      -33.63      -16.35      
507.34375   -2.26       -54.58      -33.58      -16.44      
507.4       -2.32       -57.65      -33.32      -16.36      
507.45625   -2.3        -67.01      -32.74      -16.63      
507.5125    -2.31       -57.9       -33.47      -16.5       
507.56875   -2.33       -60.32      -33.21      -16.61      
507.625     -2.33       -60.18      -33.94      -16.49      
507.68125   -2.33       -60.51      -33.5       -16.69      
507.7375    -2.38       -58.78      -33.77      -16.52      
507.79375   -2.31       -57.38      -33.39      -16.53      
507.85      -2.37       -72.02      -34.34      -16.43      
507.90625   -2.3        -63.72      -33.69      -16.69      
507.9625    -2.37       -59.88      -34.15      -16.51      
508.01875   -2.33       -54.29      -33.43      -16.51      
508.075     -2.38       -58.76      -33.68      -16.42      
508.13125   -2.37       -57.17      -33.33      -16.46      
508.1875    -2.37       -56.31      -34.06      -16.47      
508.24375   -2.41       -54.66      -33.49      -16.65      
508.3       -2.43       -68.32      -34.16      -16.48      
508.35625   -2.38       -70.29      -32.89      -16.62      
508.4125    -2.47       -77.16      -34.4       -16.39      
508.46875   -2.37       -57.08      -32.66      -16.59      
508.525     -2.43       -53.23      -33.68      -16.38      
508.58125   -2.37       -55.09      -32.91      -16.59      
508.6375    -2.37       -70.17      -33.92      -16.5       
508.69375   -2.38       -61.11      -33.22      -16.44      
508.75      -2.46       -72.74      -33.51      -16.47      
508.80625   -2.41       -56.16      -33.0       -16.58      
508.8625    -2.43       -66.3       -33.42      -16.6       
508.91875   -2.36       -59.44      -32.97      -16.63      
508.975     -2.43       -53.37      -33.57      -16.52      
509.03125   -2.37       -56.48      -33.06      -16.58      
509.0875    -2.43       -55.17      -33.76      -16.4       
509.14375   -2.42       -65.01      -33.61      -16.61      
509.2       -2.44       -65.87      -33.26      -16.47      
509.25625   -2.43       -56.33      -33.25      -16.66      
509.3125    -2.43       -56.64      -33.16      -16.55      
509.36875   -2.42       -56.37      -32.82      -16.57      
509.425     -2.43       -56.32      -33.27      -16.48      
509.48125   -2.42       -56.18      -33.01      -16.57      
509.5375    -2.46       -61.76      -33.73      -16.52      
509.59375   -2.43       -55.27      -33.29      -16.66      
509.65      -2.44       -55.57      -33.94      -16.56      
509.70625   -2.47       -77.55      -33.31      -16.64      
509.7625    -2.48       -59.68      -33.08      -16.51      
509.81875   -2.49       -59.62      -32.18      -16.62      
509.875     -2.46       -54.22      -32.99      -16.57      
509.93125   -2.45       -53.57      -33.29      -16.55      
509.9875    -2.5        -67.14      -33.22      -16.5       
510.04375   -2.48       -58.3       -33.14      -16.58      
510.1       -2.48       -57.18      -33.46      -16.47      
510.15625   -2.44       -57.12      -33.1       -16.53      
510.2125    -2.46       -54.56      -33.21      -16.27      
510.26875   -2.49       -59.78      -33.2       -16.61      
510.325     -2.49       -64.59      -33.57      -16.4       
510.38125   -2.45       -52.95      -32.75      -16.57      
510.4375    -2.51       -76.32      -33.94      -16.48      
510.49375   -2.5        -60.01      -33.37      -16.66      
510.55      -2.53       -62.14      -34.19      -16.44      
510.60625   -2.54       -61.65      -33.62      -16.61      
510.6625    -2.55       -64.73      -34.53      -16.41      
510.71875   -2.53       -61.46      -33.51      -16.54      
510.775     -2.54       -53.13      -34.21      -16.54      
510.83125   -2.51       -66.62      -33.68      -16.68      
510.8875    -2.5        -57.77      -33.86      -16.44      
510.94375   -2.48       -53.3       -33.56      -16.58      
511.0       -2.51       -66.2       -33.57      -16.55      
511.05625   -2.46       -52.2       -32.96      -16.58      
511.1125    -2.5        -66.79      -33.77      -16.49      
511.16875   -2.5        -74.26      -33.42      -16.63      
511.225     -2.49       -58.13      -34.09      -16.52      
511.28125   -2.56       -55.68      -34.65      -16.72      
511.3375    -2.52       -63.88      -34.43      -16.48      
511.39375   -2.52       -62.68      -34.34      -16.57      
511.45      -2.48       -58.47      -34.73      -16.48      
511.50625   -2.5        -67.9       -33.97      -16.63      
511.5625    -2.49       -55.93      -34.04      -16.51      
511.61875   -2.55       -62.09      -34.28      -16.66      
511.675     -2.57       -60.85      -34.34      -16.53      
511.73125   -2.55       -56.65      -34.03      -16.8       
511.7875    -2.52       -57.36      -35.7       -16.47      
511.84375   -2.53       -70.39      -34.4       -16.49      
511.9       -2.52       -56.5       -34.6       -16.43      
511.95625   -2.54       -58.31      -34.73      -16.67      
512.0125    -2.52       -62.47      -34.63      -16.56      
512.06875   -2.5        -56.73      -34.41      -16.57      
512.125     -2.48       -64.75      -34.57      -16.54      
512.18125   -2.52       -75.89      -33.91      -16.77      
512.2375    -2.5        -57.99      -34.38      -16.57      
512.29375   -2.52       -58.73      -34.6       -16.66      
512.35      -2.52       -61.03      -34.58      -16.5       
512.40625   -2.52       -67.27      -34.46      -16.54      
512.4625    -2.54       -59.87      -35.22      -16.61      
512.51875   -2.53       -58.02      -34.57      -16.67      
512.575     -2.52       -64.72      -35.03      -16.49      
512.63125   -2.5        -59.66      -35.57      -16.6       
512.6875    -2.56       -55.19      -35.54      -16.67      
512.74375   -2.54       -60.24      -36.27      -16.67      
512.8       -2.55       -59.48      -35.86      -16.49      
512.85625   -2.56       -56.01      -35.61      -16.51      
512.9125    -2.54       -58.31      -35.48      -16.57      
512.96875   -2.55       -60.41      -35.14      -16.66      
513.025     -2.5        -72.19      -35.77      -16.54      
513.08125   -2.58       -62.28      -35.1       -16.66      
513.1375    -2.53       -66.77      -35.35      -16.59      
513.19375   -2.55       -65.97      -35.23      -16.78      
513.25      -2.51       -56.08      -35.27      -16.61      
513.30625   -2.52       -60.81      -35.27      -16.52      
513.3625    -2.52       -52.96      -35.89      -16.54      
513.41875   -2.53       -52.44      -35.49      -16.62      
513.475     -2.53       -61.54      -35.82      -16.53      
513.53125   -2.55       -58.61      -36.75      -16.63      
513.5875    -2.5        -60.13      -36.91      -16.55      
513.64375   -2.49       -60.46      -37.44      -16.67      
513.7       -2.47       -66.69      -36.18      -16.55      
513.75625   -2.53       -59.69      -35.61      -16.66      
513.8125    -2.49       -63.35      -35.52      -16.57      
513.86875   -2.51       -58.32      -35.59      -16.72      
513.925     -2.53       -53.59      -35.45      -16.56      
513.98125   -2.57       -64.23      -36.09      -16.69      
514.0375    -2.56       -60.77      -36.26      -16.48      
514.09375   -2.56       -67.79      -36.86      -16.63      
514.15      -2.56       -65.93      -37.13      -16.65      
514.20625   -2.56       -59.92      -37.16      -16.65      
514.2625    -2.58       -53.12      -36.98      -16.5       
514.31875   -2.54       -66.82      -38.34      -16.64      
514.375     -2.47       -56.94      -37.55      -16.45      
514.43125   -2.49       -60.9       -38.31      -16.72      
514.4875    -2.49       -62.45      -37.74      -16.6       
514.54375   -2.46       -66.41      -38.64      -16.57      
514.6       -2.48       -60.57      -37.44      -16.51      
514.65625   -2.52       -65.03      -38.28      -16.64      
514.7125    -2.52       -58.84      -37.55      -16.5       
514.76875   -2.47       -65.79      -37.51      -16.78      
514.825     -2.49       -82.32      -38.02      -16.63      
514.88125   -2.52       -59.81      -38.63      -16.63      
514.9375    -2.48       -55.76      -37.58      -16.47      
514.99375   -2.53       -55.25      -39.16      -16.59      
515.05      -2.52       -61.63      -37.76      -16.62      
515.10625   -2.53       -57.86      -38.83      -16.74      
515.1625    -2.51       -60.64      -37.59      -16.61      
515.21875   -2.56       -72.23      -38.66      -16.59      
515.275     -2.53       -55.53      -37.79      -16.46      
515.33125   -2.55       -61.63      -39.71      -16.67      
515.3875    -2.55       -82.31      -38.51      -16.64      
515.44375   -2.55       -64.84      -40.15      -16.61      
515.5       -2.52       -60.05      -38.55      -16.62      
515.55625   -2.51       -61.35      -39.41      -16.63      
515.6125    -2.5        -54.87      -38.94      -16.61      
515.66875   -2.51       -56.98      -39.73      -16.79      
515.725     -2.5        -60.2       -39.1       -16.54      
515.78125   -2.48       -55.94      -39.63      -16.6       
515.8375    -2.5        -57.51      -39.06      -16.56      
515.89375   -2.51       -53.3       -40.47      -16.67      
515.95      -2.5        -62.38      -39.39      -16.57      
516.00625   -2.55       -92.36      -39.75      -16.59      
516.0625    -2.49       -70.26      -39.31      -16.52      
516.11875   -2.5        -64.19      -39.98      -16.58      
516.175     -2.49       -65.42      -39.81      -16.58      
516.23125   -2.52       -67.33      -40.54      -16.6       
516.2875    -2.48       -64.51      -39.24      -16.7       
516.34375   -2.52       -62.15      -40.18      -16.6       
516.4       -2.47       -57.61      -40.03      -16.65      
516.45625   -2.51       -56.41      -42.4       -16.71      
516.5125    -2.51       -69.17      -40.16      -16.55      
516.56875   -2.5        -53.69      -41.38      -16.59      
516.625     -2.47       -59.87      -40.2       -16.72      
516.68125   -2.5        -59.27      -42.21      -16.63      
516.7375    -2.49       -71.09      -40.56      -16.64      
516.79375   -2.54       -59.05      -42.2       -16.71      
516.85      -2.5        -69.08      -41.58      -16.73      
516.90625   -2.51       -59.55      -41.42      -16.72      
516.9625    -2.48       -55.06      -41.26      -16.54      
517.01875   -2.51       -50.57      -42.73      -16.66      
517.075     -2.48       -63.7       -40.92      -16.64      
517.13125   -2.5        -53.54      -42.34      -16.64      
517.1875    -2.45       -58.59      -41.17      -16.57      
517.24375   -2.52       -52.35      -44.15      -16.57      
517.3       -2.45       -59.75      -41.66      -16.63      
517.35625   -2.46       -63.07      -42.78      -16.64      
517.4125    -2.49       -55.5       -42.26      -16.77      
517.46875   -2.49       -67.44      -43.14      -16.74      
517.525     -2.48       -55.43      -43.39      -16.62      
517.58125   -2.48       -61.18      -43.77      -16.6       
517.6375    -2.49       -57.09      -41.73      -16.59      
517.69375   -2.56       -63.35      -43.15      -16.62      
517.75      -2.49       -68.09      -42.02      -16.72      
517.80625   -2.52       -60.69      -43.83      -16.75      
517.8625    -2.46       -57.28      -42.95      -16.63      
517.91875   -2.51       -61.18      -44.73      -16.67      
517.975     -2.49       -59.12      -41.38      -16.63      
518.03125   -2.5        -54.69      -45.4       -16.66      
518.0875    -2.49       -59.32      -43.52      -16.63      
518.14375   -2.46       -76.23      -45.74      -16.63      
518.2       -2.45       -59.68      -44.32      -16.76      
518.25625   -2.48       -57.19      -45.16      -16.68      
518.3125    -2.4        -63.91      -44.32      -16.66      
518.36875   -2.49       -61.56      -46.44      -16.66      
518.425     -2.47       -62.28      -45.9       -16.62      
518.48125   -2.53       -58.05      -46.46      -16.71      
518.5375    -2.46       -57.47      -44.09      -16.64      
518.59375   -2.45       -60.93      -46.94      -16.65      
518.65      -2.46       -56.71      -45.48      -16.71      
518.70625   -2.5        -66.52      -45.55      -16.79      
518.7625    -2.42       -56.95      -43.68      -16.56      
518.81875   -2.52       -60.58      -46.07      -16.69      
518.875     -2.46       -55.22      -43.58      -16.6       
518.93125   -2.51       -70.62      -45.8       -16.74      
518.9875    -2.44       -62.31      -44.46      -16.67      
519.04375   -2.47       -59.15      -47.3       -16.67      
519.1       -2.44       -55.26      -44.27      -16.68      
519.15625   -2.47       -63.72      -50.28      -16.7       
519.2125    -2.5        -55.89      -47.63      -16.61      
519.26875   -2.49       -54.36      -49.0       -16.58      
519.325     -2.5        -59.41      -49.4       -16.65      
519.38125   -2.49       -62.23      -49.17      -16.56      
519.4375    -2.48       -56.7       -48.44      -16.58      
519.49375   -2.52       -59.84      -58.18      -16.67      
519.55      -2.47       -58.77      -47.75      -16.67      
519.60625   -2.48       -65.41      -48.12      -16.69      
519.6625    -2.46       -64.29      -50.16      -16.8       
519.71875   -2.49       -58.24      -50.3       -16.6       
519.775     -2.44       -59.23      -46.64      -16.74      
519.83125   -2.46       -51.48      -48.4       -16.59      
519.8875    -2.44       -58.48      -49.83      -16.67      
519.94375   -2.48       -65.55      -50.69      -16.69      
520.0       -2.44       -61.54      -50.91      -16.62      
