TESTE DA PLACA: RFFE

Operador: Fernando
Numero de Serie: 11111111
RFFE Software Version: V2_0002
RFFE - IP: 10.0.18.9
RFFE - Communication: OK
Start Time: 23-02-2017 20:52:50
End Time: 23-02-2017 20:52:50
Duracao do Teste: 6.609 min

Set-up Info:
Network Analyzer Model: E5062A
Network Analyzer - IP: 10.0.18.20
Network Analyzer - Communication: OK
Waveform Generator Model: 33500B
Waveform Generator - IP: 10.0.18.13
Waveform Generator - Communication: OK
RF Switch Model: RC-2SP4T-A18
RF Switch1 - IP: 10.0.18.12
RF Switch1 - Communication: OK
RF Switch2 - IP: 10.0.18.15
RF Switch2 - Communication: OK
DC Power Supply Model: 6626A

RESULTS:

RFFE Ch: 4-3

Freq [MHz]  S11 [dB]    S12 [dB]    S21 [dB]    S22 [dB]    
430.0       -2.59       -61.47      -59.68      -16.14      
430.05625   -2.55       -57.67      -55.33      -16.43      
430.1125    -2.53       -52.99      -72.29      -16.08      
430.16875   -2.55       -53.4       -62.62      -16.26      
430.225     -2.58       -62.24      -73.25      -16.2       
430.28125   -2.58       -58.91      -56.23      -16.35      
430.3375    -2.55       -60.76      -59.29      -16.13      
430.39375   -2.55       -61.62      -59.37      -16.35      
430.45      -2.5        -65.79      -62.64      -16.13      
430.50625   -2.57       -64.92      -56.35      -16.28      
430.5625    -2.51       -66.89      -59.85      -16.1       
430.61875   -2.57       -53.33      -60.67      -16.26      
430.675     -2.55       -56.41      -55.74      -16.2       
430.73125   -2.59       -56.73      -60.82      -16.32      
430.7875    -2.52       -64.66      -58.13      -16.11      
430.84375   -2.56       -52.72      -63.4       -16.27      
430.9       -2.52       -60.07      -69.29      -16.21      
430.95625   -2.57       -73.17      -56.06      -16.29      
431.0125    -2.55       -59.79      -65.43      -16.14      
431.06875   -2.59       -56.43      -60.07      -16.36      
431.125     -2.54       -60.1       -60.37      -16.22      
431.18125   -2.55       -61.52      -55.56      -16.27      
431.2375    -2.52       -61.8       -53.82      -16.09      
431.29375   -2.55       -57.71      -67.4       -16.31      
431.35      -2.48       -54.6       -66.68      -16.18      
431.40625   -2.53       -72.73      -69.17      -16.31      
431.4625    -2.49       -56.9       -64.95      -16.14      
431.51875   -2.53       -63.43      -57.69      -16.22      
431.575     -2.49       -55.06      -53.57      -16.06      
431.63125   -2.56       -58.03      -58.72      -16.2       
431.6875    -2.49       -56.06      -61.1       -16.11      
431.74375   -2.54       -59.24      -54.91      -16.46      
431.8       -2.56       -56.17      -58.35      -16.09      
431.85625   -2.55       -58.01      -71.0       -16.25      
431.9125    -2.5        -58.46      -61.91      -16.08      
431.96875   -2.61       -62.27      -55.82      -16.28      
432.025     -2.58       -56.33      -60.28      -16.1       
432.08125   -2.57       -60.23      -64.67      -16.28      
432.1375    -2.57       -57.07      -68.29      -16.22      
432.19375   -2.59       -77.59      -57.0       -16.33      
432.25      -2.56       -58.98      -56.87      -16.09      
432.30625   -2.59       -53.91      -65.12      -16.09      
432.3625    -2.57       -75.6       -54.23      -16.03      
432.41875   -2.6        -60.44      -58.95      -16.23      
432.475     -2.6        -55.59      -58.18      -16.23      
432.53125   -2.64       -80.57      -66.06      -16.17      
432.5875    -2.59       -51.99      -57.17      -16.15      
432.64375   -2.63       -55.54      -61.72      -16.21      
432.7       -2.65       -57.59      -56.73      -16.11      
432.75625   -2.69       -54.44      -61.21      -16.29      
432.8125    -2.64       -53.76      -58.79      -16.11      
432.86875   -2.71       -68.69      -60.38      -16.22      
432.925     -2.64       -53.39      -61.15      -16.03      
432.98125   -2.71       -60.05      -62.26      -16.36      
433.0375    -2.68       -54.29      -52.96      -16.24      
433.09375   -2.65       -63.35      -64.33      -16.25      
433.15      -2.71       -61.38      -58.48      -16.13      
433.20625   -2.71       -61.3       -57.17      -16.19      
433.2625    -2.68       -54.88      -52.82      -16.24      
433.31875   -2.65       -55.38      -54.34      -16.2       
433.375     -2.66       -53.53      -54.97      -16.21      
433.43125   -2.67       -55.71      -55.09      -16.37      
433.4875    -2.66       -54.69      -55.22      -16.07      
433.54375   -2.69       -57.28      -56.71      -16.21      
433.6       -2.67       -65.42      -52.63      -16.16      
433.65625   -2.7        -56.34      -55.43      -16.29      
433.7125    -2.64       -58.13      -55.56      -16.17      
433.76875   -2.65       -62.86      -63.51      -16.12      
433.825     -2.68       -64.04      -78.76      -16.07      
433.88125   -2.66       -54.68      -55.17      -16.18      
433.9375    -2.66       -59.26      -54.51      -16.18      
433.99375   -2.65       -60.86      -71.77      -16.32      
434.05      -2.64       -58.5       -61.98      -16.12      
434.10625   -2.64       -68.56      -50.1       -16.27      
434.1625    -2.65       -56.22      -59.61      -16.22      
434.21875   -2.67       -63.4       -63.61      -16.22      
434.275     -2.63       -65.63      -63.64      -16.24      
434.33125   -2.69       -57.7       -59.64      -16.18      
434.3875    -2.66       -59.45      -61.44      -16.11      
434.44375   -2.66       -59.83      -60.25      -16.27      
434.5       -2.6        -55.75      -61.41      -16.11      
434.55625   -2.67       -57.79      -62.76      -16.19      
434.6125    -2.68       -66.78      -68.27      -16.18      
434.66875   -2.66       -53.09      -56.57      -16.32      
434.725     -2.65       -65.13      -59.06      -16.08      
434.78125   -2.68       -69.36      -63.44      -16.18      
434.8375    -2.66       -87.64      -56.23      -16.12      
434.89375   -2.71       -58.77      -63.59      -16.21      
434.95      -2.7        -63.37      -59.71      -16.21      
435.00625   -2.69       -56.4       -63.45      -16.2       
435.0625    -2.69       -54.08      -64.15      -16.14      
435.11875   -2.71       -72.01      -68.79      -16.17      
435.175     -2.64       -62.85      -67.36      -16.06      
435.23125   -2.68       -61.41      -60.5       -16.2       
435.2875    -2.67       -55.16      -63.21      -16.18      
435.34375   -2.67       -68.12      -56.8       -16.26      
435.4       -2.63       -57.74      -56.5       -16.19      
435.45625   -2.7        -55.67      -64.77      -16.17      
435.5125    -2.64       -57.2       -65.53      -16.06      
435.56875   -2.7        -80.7       -58.74      -16.18      
435.625     -2.64       -61.92      -55.87      -16.11      
435.68125   -2.64       -54.45      -51.6       -16.15      
435.7375    -2.68       -52.51      -54.59      -16.18      
435.79375   -2.69       -61.24      -65.87      -16.07      
435.85      -2.61       -59.02      -73.83      -16.08      
435.90625   -2.63       -59.66      -54.94      -16.18      
435.9625    -2.63       -56.52      -56.42      -16.13      
436.01875   -2.63       -59.98      -65.17      -16.08      
436.075     -2.62       -60.39      -54.85      -16.22      
436.13125   -2.65       -54.71      -59.06      -16.1       
436.1875    -2.62       -55.51      -56.93      -16.17      
436.24375   -2.62       -68.6       -59.1       -16.17      
436.3       -2.64       -79.55      -62.49      -16.27      
436.35625   -2.63       -67.0       -65.82      -16.2       
436.4125    -2.61       -60.23      -56.22      -16.29      
436.46875   -2.69       -59.51      -57.91      -16.18      
436.525     -2.66       -55.16      -80.5       -16.2       
436.58125   -2.68       -61.57      -68.93      -16.29      
436.6375    -2.66       -65.61      -65.99      -16.12      
436.69375   -2.67       -53.75      -62.36      -16.18      
436.75      -2.67       -52.18      -60.65      -16.2       
436.80625   -2.71       -56.23      -58.18      -16.16      
436.8625    -2.68       -54.74      -68.59      -16.28      
436.91875   -2.74       -56.29      -65.36      -16.18      
436.975     -2.69       -85.07      -65.67      -16.26      
437.03125   -2.73       -56.04      -64.35      -16.21      
437.0875    -2.69       -58.6       -60.67      -16.26      
437.14375   -2.76       -59.53      -59.77      -16.19      
437.2       -2.77       -55.56      -52.13      -16.13      
437.25625   -2.82       -59.66      -54.92      -16.2       
437.3125    -2.82       -57.78      -63.0       -16.19      
437.36875   -2.82       -61.12      -54.23      -16.1       
437.425     -2.86       -56.64      -53.24      -16.31      
437.48125   -2.85       -56.0       -57.96      -16.2       
437.5375    -2.86       -60.65      -63.15      -16.21      
437.59375   -2.87       -57.32      -54.33      -16.09      
437.65      -2.9        -56.93      -60.98      -16.28      
437.70625   -2.96       -74.64      -59.63      -16.19      
437.7625    -2.96       -54.96      -55.09      -16.21      
437.81875   -2.95       -55.84      -59.1       -16.08      
437.875     -2.95       -69.98      -59.87      -16.16      
437.93125   -2.96       -53.1       -65.19      -16.16      
437.9875    -2.89       -54.05      -59.5       -16.21      
438.04375   -2.95       -70.35      -56.8       -16.09      
438.1       -2.86       -62.61      -66.24      -16.15      
438.15625   -2.92       -60.6       -58.37      -16.05      
438.2125    -2.9        -61.71      -67.86      -16.42      
438.26875   -2.88       -57.73      -58.75      -16.13      
438.325     -2.82       -55.57      -56.19      -16.24      
438.38125   -2.81       -55.32      -59.69      -16.26      
438.4375    -2.77       -65.3       -63.09      -16.2       
438.49375   -2.76       -55.14      -58.48      -16.08      
438.55      -2.72       -53.08      -55.33      -16.26      
438.60625   -2.77       -60.74      -62.59      -16.14      
438.6625    -2.72       -61.04      -54.66      -16.17      
438.71875   -2.72       -62.73      -57.77      -16.07      
438.775     -2.66       -54.85      -66.38      -16.34      
438.83125   -2.72       -60.16      -59.35      -16.12      
438.8875    -2.64       -65.94      -58.79      -16.29      
438.94375   -2.69       -55.68      -68.22      -16.19      
439.0       -2.67       -58.08      -57.86      -16.15      
439.05625   -2.68       -51.67      -62.08      -16.15      
439.1125    -2.64       -55.75      -55.74      -16.27      
439.16875   -2.64       -53.24      -56.57      -16.16      
439.225     -2.6        -56.02      -57.18      -16.2       
439.28125   -2.65       -60.2       -58.49      -16.12      
439.3375    -2.64       -60.18      -64.79      -16.21      
439.39375   -2.66       -61.7       -56.03      -16.09      
439.45      -2.64       -55.74      -64.58      -16.27      
439.50625   -2.68       -58.78      -58.93      -16.22      
439.5625    -2.64       -71.49      -50.88      -16.2       
439.61875   -2.67       -65.05      -59.3       -16.15      
439.675     -2.62       -56.44      -64.3       -16.3       
439.73125   -2.65       -59.09      -57.35      -16.13      
439.7875    -2.62       -56.78      -58.96      -16.22      
439.84375   -2.71       -65.76      -82.73      -16.18      
439.9       -2.62       -56.06      -53.36      -16.33      
439.95625   -2.71       -55.54      -60.47      -16.16      
440.0125    -2.65       -64.63      -60.93      -16.15      
440.06875   -2.73       -58.35      -56.85      -16.15      
440.125     -2.68       -60.76      -56.71      -16.3       
440.18125   -2.74       -65.74      -60.17      -16.07      
440.2375    -2.78       -56.11      -55.79      -16.25      
440.29375   -2.85       -74.11      -62.67      -16.19      
440.35      -2.79       -58.11      -61.72      -16.27      
440.40625   -2.83       -59.23      -59.18      -16.09      
440.4625    -2.81       -60.12      -58.11      -16.29      
440.51875   -2.89       -59.65      -56.14      -16.15      
440.575     -2.88       -73.58      -54.12      -16.31      
440.63125   -2.89       -66.5       -60.1       -16.09      
440.6875    -2.86       -55.73      -62.61      -16.25      
440.74375   -2.9        -63.46      -58.27      -16.09      
440.8       -2.93       -65.66      -57.79      -16.32      
440.85625   -3.0        -56.55      -59.79      -16.13      
440.9125    -2.89       -56.38      -57.88      -16.22      
440.96875   -3.04       -58.78      -56.06      -16.05      
441.025     -2.98       -59.38      -56.21      -16.32      
441.08125   -2.99       -59.5       -73.25      -16.07      
441.1375    -3.01       -54.19      -64.77      -16.24      
441.19375   -3.02       -54.84      -59.52      -16.13      
441.25      -2.94       -70.03      -68.65      -16.36      
441.30625   -2.96       -50.68      -62.42      -16.14      
441.3625    -2.93       -55.13      -64.13      -16.18      
441.41875   -2.91       -55.71      -61.63      -16.16      
441.475     -2.89       -68.77      -56.91      -16.38      
441.53125   -2.86       -65.73      -58.97      -16.06      
441.5875    -2.83       -61.84      -67.89      -16.32      
441.64375   -2.84       -67.24      -58.57      -16.09      
441.7       -2.74       -77.05      -57.49      -16.22      
441.75625   -2.83       -54.97      -56.64      -16.15      
441.8125    -2.78       -53.9       -56.29      -16.22      
441.86875   -2.77       -57.15      -59.49      -16.17      
441.925     -2.74       -56.16      -59.62      -16.33      
441.98125   -2.76       -56.13      -72.4       -16.15      
442.0375    -2.73       -55.2       -52.42      -16.27      
442.09375   -2.77       -52.86      -77.97      -16.14      
442.15      -2.7        -53.49      -56.71      -16.31      
442.20625   -2.7        -54.31      -55.49      -16.05      
442.2625    -2.65       -55.87      -65.97      -16.29      
442.31875   -2.66       -64.92      -71.29      -16.07      
442.375     -2.65       -61.62      -59.8       -16.41      
442.43125   -2.69       -55.03      -53.06      -16.19      
442.4875    -2.65       -60.73      -81.89      -16.22      
442.54375   -2.6        -52.75      -64.67      -16.13      
442.6       -2.62       -63.56      -57.38      -16.29      
442.65625   -2.66       -60.83      -57.69      -16.09      
442.7125    -2.61       -56.99      -73.54      -16.3       
442.76875   -2.63       -61.23      -54.54      -16.12      
442.825     -2.61       -62.11      -61.14      -16.23      
442.88125   -2.64       -55.72      -57.35      -16.13      
442.9375    -2.62       -61.85      -53.04      -16.41      
442.99375   -2.64       -63.69      -58.51      -16.06      
443.05      -2.62       -55.09      -64.85      -16.15      
443.10625   -2.66       -67.59      -60.94      -16.23      
443.1625    -2.63       -61.84      -66.02      -16.3       
443.21875   -2.66       -57.37      -56.7       -16.17      
443.275     -2.58       -58.88      -60.73      -16.25      
443.33125   -2.65       -62.33      -57.67      -16.06      
443.3875    -2.6        -56.33      -58.46      -16.25      
443.44375   -2.67       -74.09      -55.9       -16.26      
443.5       -2.59       -61.13      -60.26      -16.26      
443.55625   -2.67       -56.09      -63.03      -16.18      
443.6125    -2.61       -52.52      -61.79      -16.32      
443.66875   -2.64       -57.67      -69.82      -15.97      
443.725     -2.58       -53.19      -52.32      -16.22      
443.78125   -2.64       -53.57      -57.84      -16.16      
443.8375    -2.62       -62.99      -57.1       -16.23      
443.89375   -2.63       -65.88      -56.66      -16.12      
443.95      -2.6        -55.24      -62.6       -16.23      
444.00625   -2.67       -58.6       -63.22      -16.12      
444.0625    -2.65       -76.2       -58.01      -16.31      
444.11875   -2.67       -68.26      -70.76      -16.15      
444.175     -2.63       -59.91      -63.05      -16.37      
444.23125   -2.62       -53.9       -60.74      -16.13      
444.2875    -2.61       -57.97      -59.39      -16.34      
444.34375   -2.65       -61.72      -52.57      -16.0       
444.4       -2.63       -51.44      -58.55      -16.38      
444.45625   -2.67       -51.48      -74.85      -16.31      
444.5125    -2.64       -63.95      -73.24      -16.28      
444.56875   -2.69       -57.38      -67.24      -16.16      
444.625     -2.65       -63.03      -64.36      -16.38      
444.68125   -2.7        -64.73      -73.78      -16.16      
444.7375    -2.66       -56.38      -56.72      -16.28      
444.79375   -2.67       -56.98      -60.79      -16.13      
444.85      -2.65       -53.69      -56.7       -16.43      
444.90625   -2.71       -53.85      -61.64      -16.22      
444.9625    -2.65       -58.69      -61.27      -16.2       
445.01875   -2.67       -60.95      -62.45      -16.19      
445.075     -2.6        -56.84      -58.93      -16.22      
445.13125   -2.67       -56.07      -57.02      -16.1       
445.1875    -2.6        -57.16      -54.19      -16.26      
445.24375   -2.64       -63.79      -60.99      -16.13      
445.3       -2.61       -57.99      -59.08      -16.14      
445.35625   -2.64       -59.63      -72.05      -16.07      
445.4125    -2.62       -62.79      -68.78      -16.29      
445.46875   -2.56       -58.17      -67.1       -16.19      
445.525     -2.58       -57.51      -58.77      -16.24      
445.58125   -2.54       -56.55      -54.67      -15.96      
445.6375    -2.54       -66.29      -76.22      -16.27      
445.69375   -2.54       -55.01      -62.77      -16.17      
445.75      -2.49       -51.95      -71.35      -16.27      
445.80625   -2.56       -62.24      -73.28      -16.07      
445.8625    -2.48       -57.74      -69.02      -16.31      
445.91875   -2.52       -55.55      -60.96      -16.17      
445.975     -2.44       -63.49      -60.73      -16.34      
446.03125   -2.53       -63.34      -59.93      -16.09      
446.0875    -2.48       -54.25      -61.52      -16.22      
446.14375   -2.45       -57.64      -51.61      -16.16      
446.2       -2.46       -63.22      -61.64      -16.4       
446.25625   -2.46       -71.42      -55.64      -16.16      
446.3125    -2.45       -53.72      -66.31      -16.24      
446.36875   -2.5        -65.34      -59.12      -16.11      
446.425     -2.41       -84.97      -58.23      -16.3       
446.48125   -2.47       -56.61      -58.29      -16.19      
446.5375    -2.42       -62.03      -56.29      -16.3       
446.59375   -2.44       -60.1       -62.91      -16.16      
446.65      -2.44       -60.33      -62.24      -16.29      
446.70625   -2.44       -55.4       -57.13      -16.12      
446.7625    -2.43       -54.21      -69.06      -16.36      
446.81875   -2.44       -72.45      -61.32      -16.12      
446.875     -2.38       -64.75      -59.82      -16.28      
446.93125   -2.46       -66.02      -67.85      -16.24      
446.9875    -2.43       -53.36      -60.78      -16.27      
447.04375   -2.5        -65.15      -55.92      -16.11      
447.1       -2.42       -59.21      -57.4       -16.29      
447.15625   -2.45       -60.03      -63.18      -16.18      
447.2125    -2.44       -67.43      -55.7       -16.2       
447.26875   -2.49       -60.87      -65.42      -16.12      
447.325     -2.43       -58.28      -56.52      -16.22      
447.38125   -2.44       -59.64      -61.11      -16.24      
447.4375    -2.43       -66.18      -55.96      -16.24      
447.49375   -2.49       -61.72      -64.01      -16.2       
447.55      -2.42       -65.43      -51.63      -16.21      
447.60625   -2.44       -66.74      -58.22      -16.2       
447.6625    -2.45       -57.51      -63.13      -16.19      
447.71875   -2.5        -62.19      -65.87      -16.11      
447.775     -2.41       -75.51      -57.74      -16.22      
447.83125   -2.45       -60.66      -56.81      -16.27      
447.8875    -2.39       -59.32      -56.58      -16.31      
447.94375   -2.43       -54.24      -58.39      -16.15      
448.0       -2.44       -71.46      -61.7       -16.15      
448.05625   -2.49       -60.84      -52.47      -16.12      
448.1125    -2.43       -63.67      -65.15      -16.2       
448.16875   -2.48       -60.94      -55.58      -16.23      
448.225     -2.4        -55.78      -64.64      -16.21      
448.28125   -2.48       -54.81      -55.61      -16.15      
448.3375    -2.38       -60.48      -63.81      -16.17      
448.39375   -2.43       -60.82      -61.19      -16.32      
448.45      -2.42       -59.09      -56.48      -16.23      
448.50625   -2.42       -62.42      -53.37      -16.2       
448.5625    -2.41       -61.77      -64.55      -16.17      
448.61875   -2.4        -60.66      -56.75      -16.21      
448.675     -2.38       -56.68      -58.96      -16.21      
448.73125   -2.43       -66.49      -54.64      -16.22      
448.7875    -2.33       -61.97      -57.0       -16.24      
448.84375   -2.42       -57.96      -54.01      -16.18      
448.9       -2.4        -62.03      -61.02      -16.28      
448.95625   -2.41       -67.49      -57.51      -16.23      
449.0125    -2.37       -54.77      -67.06      -16.22      
449.06875   -2.43       -54.06      -78.57      -16.16      
449.125     -2.37       -55.18      -56.1       -16.23      
449.18125   -2.4        -68.68      -61.44      -16.19      
449.2375    -2.38       -56.25      -57.09      -16.26      
449.29375   -2.4        -59.5       -60.17      -16.21      
449.35      -2.37       -60.68      -67.82      -16.25      
449.40625   -2.41       -53.93      -66.0       -16.28      
449.4625    -2.34       -57.84      -76.42      -16.22      
449.51875   -2.38       -60.82      -57.3       -16.17      
449.575     -2.38       -63.22      -56.89      -16.18      
449.63125   -2.39       -53.41      -54.62      -16.24      
449.6875    -2.35       -54.97      -58.32      -16.28      
449.74375   -2.39       -55.23      -67.76      -16.23      
449.8       -2.36       -61.89      -54.64      -16.2       
449.85625   -2.4        -74.8       -62.13      -16.24      
449.9125    -2.35       -57.11      -66.43      -16.21      
449.96875   -2.37       -51.77      -62.19      -16.23      
450.025     -2.36       -60.17      -56.25      -16.22      
450.08125   -2.36       -62.47      -57.61      -16.26      
450.1375    -2.32       -73.56      -57.69      -16.22      
450.19375   -2.44       -56.88      -56.63      -16.24      
450.25      -2.3        -55.76      -56.62      -16.21      
450.30625   -2.41       -56.68      -60.59      -16.19      
450.3625    -2.37       -59.82      -62.09      -16.2       
450.41875   -2.4        -71.73      -57.38      -16.2       
450.475     -2.37       -66.08      -60.67      -16.24      
450.53125   -2.38       -64.56      -55.74      -16.19      
450.5875    -2.35       -64.53      -56.93      -16.29      
450.64375   -2.37       -67.24      -55.99      -16.07      
450.7       -2.31       -52.9       -63.06      -16.12      
450.75625   -2.41       -67.55      -57.02      -16.31      
450.8125    -2.35       -61.08      -56.08      -16.21      
450.86875   -2.39       -57.31      -79.16      -16.29      
450.925     -2.34       -59.96      -59.84      -16.26      
450.98125   -2.39       -59.03      -57.74      -16.19      
451.0375    -2.34       -53.58      -64.1       -16.27      
451.09375   -2.38       -62.95      -53.12      -16.11      
451.15      -2.36       -58.15      -69.47      -16.16      
451.20625   -2.41       -53.51      -58.08      -16.27      
451.2625    -2.36       -54.17      -59.36      -16.13      
451.31875   -2.37       -78.34      -51.06      -16.27      
451.375     -2.35       -57.86      -73.64      -16.23      
451.43125   -2.37       -58.47      -57.86      -16.32      
451.4875    -2.36       -57.52      -58.26      -16.18      
451.54375   -2.37       -62.08      -58.74      -16.27      
451.6       -2.35       -54.05      -55.09      -16.3       
451.65625   -2.41       -54.5       -58.19      -16.2       
451.7125    -2.36       -63.13      -57.06      -16.04      
451.76875   -2.38       -58.61      -73.61      -16.16      
451.825     -2.33       -55.66      -67.33      -16.21      
451.88125   -2.4        -55.47      -56.52      -16.26      
451.9375    -2.36       -54.8       -58.37      -16.27      
451.99375   -2.39       -61.13      -57.52      -16.24      
452.05      -2.37       -55.65      -61.09      -16.25      
452.10625   -2.4        -65.99      -59.99      -16.2       
452.1625    -2.36       -64.04      -62.34      -16.31      
452.21875   -2.36       -52.8       -57.97      -16.3       
452.275     -2.4        -56.38      -59.91      -16.19      
452.33125   -2.39       -60.66      -55.31      -16.22      
452.3875    -2.39       -56.51      -62.42      -16.18      
452.44375   -2.41       -59.79      -61.58      -16.24      
452.5       -2.38       -56.72      -75.49      -16.16      
452.55625   -2.42       -68.19      -55.3       -16.31      
452.6125    -2.41       -63.8       -59.44      -16.14      
452.66875   -2.38       -59.15      -63.45      -16.21      
452.725     -2.39       -55.46      -59.95      -16.2       
452.78125   -2.44       -55.7       -58.91      -16.17      
452.8375    -2.38       -61.63      -57.64      -16.1       
452.89375   -2.42       -54.3       -65.32      -16.28      
452.95      -2.38       -74.85      -57.44      -16.16      
453.00625   -2.39       -52.38      -56.32      -16.32      
453.0625    -2.38       -58.66      -61.69      -16.07      
453.11875   -2.41       -56.42      -63.18      -16.23      
453.175     -2.36       -52.36      -65.39      -16.19      
453.23125   -2.41       -60.1       -68.64      -16.23      
453.2875    -2.42       -56.95      -59.36      -16.13      
453.34375   -2.4        -57.36      -57.41      -16.25      
453.4       -2.37       -56.33      -60.28      -16.11      
453.45625   -2.41       -65.48      -72.03      -16.29      
453.5125    -2.41       -58.04      -58.94      -16.12      
453.56875   -2.42       -57.11      -65.05      -16.17      
453.625     -2.38       -54.12      -70.77      -16.11      
453.68125   -2.43       -59.48      -59.73      -16.22      
453.7375    -2.39       -66.8       -57.4       -16.22      
453.79375   -2.45       -55.8       -55.64      -16.15      
453.85      -2.42       -58.47      -65.62      -16.11      
453.90625   -2.44       -59.4       -60.06      -16.26      
453.9625    -2.38       -54.3       -56.95      -16.13      
454.01875   -2.41       -54.5       -69.94      -16.29      
454.075     -2.41       -57.62      -55.77      -16.2       
454.13125   -2.44       -58.46      -55.02      -16.32      
454.1875    -2.44       -62.12      -62.88      -16.04      
454.24375   -2.43       -65.81      -62.43      -16.35      
454.3       -2.42       -61.63      -61.49      -16.04      
454.35625   -2.45       -64.23      -60.38      -16.12      
454.4125    -2.44       -57.01      -60.52      -16.19      
454.46875   -2.46       -57.44      -54.93      -16.28      
454.525     -2.44       -57.6       -62.89      -16.13      
454.58125   -2.47       -53.9       -59.98      -16.35      
454.6375    -2.45       -61.96      -64.9       -16.18      
454.69375   -2.54       -64.23      -57.19      -16.32      
454.75      -2.48       -65.9       -52.73      -16.15      
454.80625   -2.53       -57.71      -65.57      -16.17      
454.8625    -2.52       -57.39      -58.99      -16.16      
454.91875   -2.56       -56.31      -55.29      -16.23      
454.975     -2.54       -66.91      -53.69      -16.22      
455.03125   -2.6        -63.44      -64.17      -16.19      
455.0875    -2.55       -57.48      -53.91      -16.2       
455.14375   -2.69       -62.6       -54.33      -16.2       
455.2       -2.68       -62.44      -55.6       -16.21      
455.25625   -2.75       -57.38      -55.65      -16.23      
455.3125    -2.69       -64.55      -71.43      -16.05      
455.36875   -2.72       -56.84      -52.48      -16.1       
455.425     -2.66       -60.82      -65.25      -16.05      
455.48125   -2.74       -56.54      -62.79      -16.2       
455.5375    -2.66       -58.41      -64.86      -16.17      
455.59375   -2.65       -62.41      -53.73      -16.27      
455.65      -2.59       -55.26      -60.88      -15.99      
455.70625   -2.64       -67.23      -76.9       -16.19      
455.7625    -2.62       -54.2       -58.22      -16.06      
455.81875   -2.6        -60.76      -62.37      -16.12      
455.875     -2.55       -62.91      -64.53      -16.08      
455.93125   -2.61       -60.85      -56.94      -16.16      
455.9875    -2.55       -57.91      -54.21      -16.23      
456.04375   -2.54       -64.93      -54.43      -16.27      
456.1       -2.51       -60.99      -62.99      -16.1       
456.15625   -2.56       -52.94      -60.92      -16.36      
456.2125    -2.51       -56.24      -71.45      -16.14      
456.26875   -2.51       -71.62      -82.57      -16.15      
456.325     -2.5        -74.81      -59.39      -16.17      
456.38125   -2.52       -61.42      -62.52      -16.32      
456.4375    -2.53       -73.17      -64.02      -16.15      
456.49375   -2.52       -62.18      -62.11      -16.21      
456.55      -2.47       -57.31      -59.2       -16.16      
456.60625   -2.49       -68.81      -55.47      -16.18      
456.6625    -2.5        -64.17      -58.45      -16.22      
456.71875   -2.5        -71.33      -63.6       -16.29      
456.775     -2.48       -62.36      -58.03      -16.09      
456.83125   -2.53       -58.6       -62.53      -16.25      
456.8875    -2.45       -56.29      -62.64      -16.11      
456.94375   -2.51       -59.46      -53.47      -16.42      
457.0       -2.54       -59.68      -67.21      -16.17      
457.05625   -2.55       -55.88      -67.34      -16.34      
457.1125    -2.51       -54.97      -62.86      -16.06      
457.16875   -2.54       -60.63      -54.59      -16.23      
457.225     -2.56       -61.02      -56.78      -16.02      
457.28125   -2.6        -53.41      -58.47      -16.16      
457.3375    -2.57       -59.08      -71.43      -16.12      
457.39375   -2.57       -59.42      -65.19      -16.21      
457.45      -2.62       -57.92      -65.48      -16.2       
457.50625   -2.67       -62.17      -58.39      -16.24      
457.5625    -2.62       -53.21      -57.95      -16.08      
457.61875   -2.7        -55.84      -61.66      -16.25      
457.675     -2.69       -56.56      -62.37      -16.16      
457.73125   -2.75       -69.61      -55.47      -16.29      
457.7875    -2.75       -65.91      -54.64      -16.07      
457.84375   -2.84       -61.25      -61.0       -16.25      
457.9       -2.86       -58.77      -72.95      -16.11      
457.95625   -2.94       -67.06      -53.2       -16.19      
458.0125    -2.95       -62.26      -61.98      -16.05      
458.06875   -3.1        -63.53      -56.63      -16.23      
458.125     -3.09       -59.58      -72.4       -16.06      
458.18125   -3.18       -60.86      -53.47      -16.27      
458.2375    -3.19       -57.97      -74.69      -15.95      
458.29375   -3.29       -55.88      -59.92      -16.22      
458.35      -3.26       -59.25      -57.84      -16.04      
458.40625   -3.38       -57.78      -54.39      -16.22      
458.4625    -3.29       -59.05      -59.31      -16.09      
458.51875   -3.33       -58.93      -64.45      -16.12      
458.575     -3.21       -60.59      -52.44      -16.03      
458.63125   -3.22       -63.72      -52.56      -16.29      
458.6875    -3.06       -60.26      -73.95      -16.05      
458.74375   -3.03       -57.68      -57.77      -16.14      
458.8       -2.98       -63.08      -62.44      -16.01      
458.85625   -2.96       -59.42      -68.05      -16.27      
458.9125    -2.84       -60.44      -57.86      -16.06      
458.96875   -2.78       -64.78      -60.01      -16.27      
459.025     -2.77       -57.87      -68.25      -16.08      
459.08125   -2.79       -59.56      -66.43      -16.28      
459.1375    -2.71       -58.94      -53.96      -16.24      
459.19375   -2.75       -57.97      -59.7       -16.3       
459.25      -2.69       -55.98      -55.78      -16.07      
459.30625   -2.71       -60.4       -63.35      -16.28      
459.3625    -2.67       -67.84      -52.93      -16.04      
459.41875   -2.71       -58.64      -65.12      -16.31      
459.475     -2.67       -58.37      -56.55      -16.11      
459.53125   -2.7        -54.94      -67.55      -16.17      
459.5875    -2.65       -56.81      -56.3       -16.16      
459.64375   -2.7        -58.87      -58.35      -16.23      
459.7       -2.7        -61.33      -58.18      -16.15      
459.75625   -2.71       -56.28      -57.21      -16.17      
459.8125    -2.7        -56.27      -60.2       -16.16      
459.86875   -2.73       -53.52      -69.19      -16.28      
459.925     -2.68       -64.31      -67.84      -16.14      
459.98125   -2.77       -55.34      -61.03      -16.19      
460.0375    -2.74       -73.09      -72.86      -16.07      
460.09375   -2.79       -59.21      -61.39      -16.26      
460.15      -2.78       -55.97      -51.66      -16.06      
460.20625   -2.87       -62.23      -56.92      -16.24      
460.2625    -2.87       -55.6       -64.51      -16.05      
460.31875   -2.96       -71.51      -61.17      -16.22      
460.375     -3.03       -57.43      -56.34      -16.07      
460.43125   -3.12       -60.26      -54.53      -16.25      
460.4875    -3.22       -57.09      -73.07      -16.02      
460.54375   -3.4        -65.13      -58.97      -16.35      
460.6       -3.57       -55.68      -56.08      -16.18      
460.65625   -3.83       -54.79      -54.62      -16.14      
460.7125    -3.97       -68.77      -53.07      -16.02      
460.76875   -4.21       -55.77      -58.32      -16.22      
460.825     -4.38       -63.97      -53.13      -16.12      
460.88125   -4.56       -55.07      -60.43      -16.29      
460.9375    -4.69       -67.15      -51.84      -16.06      
460.99375   -4.59       -55.67      -68.56      -16.22      
461.05      -4.2        -68.94      -57.41      -16.15      
461.10625   -3.85       -64.43      -57.38      -16.29      
461.1625    -3.48       -59.88      -56.79      -16.14      
461.21875   -3.29       -58.01      -66.46      -16.42      
461.275     -3.09       -56.43      -71.22      -16.18      
461.33125   -3.04       -87.94      -67.61      -16.24      
461.3875    -2.91       -56.26      -55.46      -16.1       
461.44375   -2.92       -60.33      -62.81      -16.2       
461.5       -2.88       -55.82      -59.59      -16.14      
461.55625   -2.89       -61.59      -55.82      -16.18      
461.6125    -2.83       -54.95      -62.97      -16.11      
461.66875   -2.87       -68.58      -66.05      -16.24      
461.725     -2.87       -67.19      -70.99      -16.07      
461.78125   -2.91       -71.13      -55.56      -16.2       
461.8375    -2.94       -59.69      -70.14      -16.11      
461.89375   -2.96       -66.65      -57.59      -16.14      
461.95      -2.94       -61.08      -60.55      -16.25      
462.00625   -3.07       -56.9       -67.8       -16.21      
462.0625    -3.1        -56.62      -61.16      -16.06      
462.11875   -3.16       -55.32      -54.43      -16.24      
462.175     -3.24       -58.27      -67.14      -16.14      
462.23125   -3.33       -57.13      -50.49      -16.19      
462.2875    -3.48       -59.18      -58.2       -16.17      
462.34375   -3.65       -56.1       -54.95      -16.14      
462.4       -3.86       -59.7       -46.54      -16.07      
462.45625   -4.12       -60.21      -47.65      -16.26      
462.5125    -4.47       -54.94      -44.11      -16.03      
462.56875   -4.88       -60.77      -45.38      -16.19      
462.625     -5.49       -71.74      -41.96      -16.0       
462.68125   -6.14       -59.48      -42.53      -16.17      
462.7375    -7.06       -56.22      -39.11      -16.09      
462.79375   -8.28       -56.54      -39.86      -16.25      
462.85      -9.78       -54.73      -38.09      -16.04      
462.90625   -11.68      -58.63      -39.31      -16.24      
462.9625    -13.94      -55.44      -38.31      -16.15      
463.01875   -16.52      -58.0       -39.27      -16.14      
463.075     -18.73      -69.57      -39.62      -16.06      
463.13125   -19.49      -61.97      -38.11      -16.19      
463.1875    -18.56      -59.79      -39.94      -16.18      
463.24375   -17.24      -59.65      -38.73      -16.25      
463.3       -16.29      -57.02      -42.01      -16.04      
463.35625   -15.28      -54.49      -39.32      -16.15      
463.4125    -14.69      -60.89      -41.73      -16.05      
463.46875   -14.31      -58.29      -41.16      -16.04      
463.525     -13.97      -53.83      -43.54      -16.02      
463.58125   -13.94      -56.35      -40.85      -16.13      
463.6375    -13.96      -54.0       -42.83      -16.11      
463.69375   -14.02      -57.72      -41.07      -16.14      
463.75      -14.26      -56.48      -43.29      -16.16      
463.80625   -14.55      -60.15      -40.39      -16.18      
463.8625    -14.94      -58.82      -40.41      -16.08      
463.91875   -15.27      -60.31      -39.01      -16.14      
463.975     -15.8       -77.2       -40.97      -16.2       
464.03125   -16.27      -62.36      -39.99      -16.1       
464.0875    -16.79      -65.28      -39.62      -16.07      
464.14375   -17.28      -57.92      -38.63      -16.19      
464.2       -17.67      -58.32      -38.35      -16.19      
464.25625   -18.17      -58.33      -39.11      -16.22      
464.3125    -18.79      -56.6       -38.13      -16.02      
464.36875   -18.97      -59.94      -38.48      -16.13      
464.425     -19.15      -61.1       -39.83      -16.2       
464.48125   -19.37      -63.6       -38.7       -16.19      
464.5375    -19.46      -56.26      -37.38      -16.16      
464.59375   -19.26      -55.89      -38.39      -16.11      
464.65      -18.94      -53.56      -37.34      -16.12      
464.70625   -18.58      -65.84      -37.78      -16.06      
464.7625    -18.13      -62.86      -35.72      -16.16      
464.81875   -17.6       -58.54      -37.36      -16.21      
464.875     -17.04      -58.7       -36.37      -16.06      
464.93125   -16.7       -59.16      -36.9       -16.11      
464.9875    -16.13      -56.34      -37.05      -16.03      
465.04375   -15.77      -59.16      -38.16      -16.23      
465.1       -15.31      -56.93      -36.48      -16.13      
465.15625   -14.98      -59.09      -37.17      -16.18      
465.2125    -14.66      -60.71      -36.34      -16.05      
465.26875   -14.43      -57.06      -37.63      -16.18      
465.325     -14.14      -56.67      -36.93      -16.09      
465.38125   -13.87      -63.83      -37.03      -16.19      
465.4375    -13.76      -57.54      -36.57      -16.11      
465.49375   -13.51      -56.84      -37.44      -16.18      
465.55      -13.32      -66.05      -36.45      -16.02      
465.60625   -13.18      -55.69      -37.47      -16.13      
465.6625    -13.04      -53.88      -36.93      -16.18      
465.71875   -12.89      -57.92      -37.19      -16.22      
465.775     -12.78      -57.09      -37.53      -16.11      
465.83125   -12.69      -69.76      -38.41      -16.03      
465.8875    -12.68      -65.3       -37.19      -16.05      
465.94375   -12.58      -60.96      -38.51      -16.22      
466.0       -12.49      -54.29      -37.51      -16.19      
466.05625   -12.47      -55.97      -38.65      -16.15      
466.1125    -12.4       -59.09      -37.44      -16.18      
466.16875   -12.36      -61.04      -38.46      -16.11      
466.225     -12.41      -62.41      -38.48      -16.07      
466.28125   -12.36      -63.57      -37.74      -16.2       
466.3375    -12.38      -59.84      -38.24      -15.96      
466.39375   -12.34      -53.1       -38.21      -16.17      
466.45      -12.35      -61.7       -37.26      -16.15      
466.50625   -12.38      -61.68      -39.22      -16.11      
466.5625    -12.44      -58.16      -37.46      -16.18      
466.61875   -12.51      -62.01      -38.35      -16.14      
466.675     -12.53      -62.45      -37.51      -16.21      
466.73125   -12.71      -59.31      -38.05      -16.08      
466.7875    -12.67      -56.09      -37.91      -16.16      
466.84375   -12.81      -67.02      -39.08      -16.15      
466.9       -12.77      -57.84      -37.32      -16.14      
466.95625   -12.9       -53.99      -38.86      -16.16      
467.0125    -13.01      -56.79      -38.55      -16.12      
467.06875   -13.07      -58.52      -38.96      -16.12      
467.125     -13.24      -71.84      -38.15      -16.17      
467.18125   -13.32      -61.5       -37.38      -16.07      
467.2375    -13.39      -67.0       -37.93      -16.14      
467.29375   -13.49      -77.76      -37.85      -16.26      
467.35      -13.59      -61.15      -37.83      -16.25      
467.40625   -13.67      -57.57      -37.69      -16.14      
467.4625    -13.68      -64.25      -38.38      -16.02      
467.51875   -13.8       -69.33      -38.42      -15.99      
467.575     -13.89      -55.06      -37.05      -16.08      
467.63125   -13.97      -56.65      -37.36      -16.23      
467.6875    -14.01      -53.94      -38.26      -16.06      
467.74375   -14.12      -60.58      -36.93      -16.14      
467.8       -14.18      -54.69      -37.24      -16.15      
467.85625   -14.33      -56.39      -37.29      -16.17      
467.9125    -14.33      -66.61      -37.22      -16.18      
467.96875   -14.27      -62.16      -37.01      -16.14      
468.025     -14.43      -55.77      -37.98      -16.15      
468.08125   -14.42      -63.89      -36.68      -16.07      
468.1375    -14.47      -58.92      -36.58      -16.1       
468.19375   -14.51      -59.4       -36.28      -16.09      
468.25      -14.65      -55.88      -36.7       -16.13      
468.30625   -14.64      -60.11      -36.73      -16.13      
468.3625    -14.68      -69.76      -37.1       -16.03      
468.41875   -14.75      -57.13      -36.99      -16.11      
468.475     -14.73      -59.12      -36.65      -16.25      
468.53125   -14.69      -57.82      -35.74      -16.12      
468.5875    -14.75      -53.08      -36.95      -16.18      
468.64375   -14.71      -62.09      -36.7       -16.25      
468.7       -14.76      -79.89      -37.21      -16.15      
468.75625   -14.76      -57.02      -36.14      -16.07      
468.8125    -14.65      -61.95      -37.1       -16.2       
468.86875   -14.69      -65.95      -35.92      -16.07      
468.925     -14.72      -55.37      -36.58      -16.16      
468.98125   -14.63      -63.25      -36.15      -16.1       
469.0375    -14.67      -56.13      -36.58      -16.2       
469.09375   -14.61      -52.25      -36.23      -16.04      
469.15      -14.57      -63.39      -36.67      -16.13      
469.20625   -14.61      -62.37      -35.51      -16.06      
469.2625    -14.57      -58.3       -37.02      -16.21      
469.31875   -14.62      -53.9       -36.12      -16.14      
469.375     -14.54      -60.83      -36.99      -16.14      
469.43125   -14.53      -53.64      -35.36      -16.12      
469.4875    -14.55      -67.07      -36.37      -16.07      
469.54375   -14.54      -60.53      -36.24      -16.08      
469.6       -14.53      -64.22      -35.66      -16.19      
469.65625   -14.52      -62.68      -35.87      -16.16      
469.7125    -14.43      -57.4       -36.67      -16.19      
469.76875   -14.47      -58.29      -35.41      -16.17      
469.825     -14.47      -54.13      -36.23      -16.25      
469.88125   -14.54      -59.38      -35.47      -16.01      
469.9375    -14.4       -59.36      -36.22      -16.09      
469.99375   -14.4       -60.89      -36.27      -15.97      
470.05      -14.47      -74.43      -37.79      -16.17      
470.10625   -14.49      -66.03      -36.73      -16.08      
470.1625    -14.57      -58.98      -36.38      -16.15      
470.21875   -14.61      -82.0       -36.14      -16.1       
470.275     -14.62      -74.04      -36.51      -16.18      
470.33125   -14.62      -52.96      -35.28      -16.1       
470.3875    -14.71      -57.94      -37.31      -16.24      
470.44375   -14.71      -59.63      -35.71      -16.08      
470.5       -14.65      -65.18      -35.84      -16.1       
470.55625   -14.6       -60.2       -35.54      -16.0       
470.6125    -14.71      -64.42      -36.17      -16.12      
470.66875   -14.78      -57.73      -35.85      -16.09      
470.725     -14.72      -54.33      -36.46      -16.21      
470.78125   -14.81      -52.99      -35.16      -16.07      
470.8375    -14.82      -60.43      -36.74      -16.17      
470.89375   -14.84      -55.87      -36.53      -15.9       
470.95      -15.0       -61.58      -36.19      -16.3       
471.00625   -15.08      -63.88      -36.21      -16.05      
471.0625    -15.12      -57.53      -35.77      -16.16      
471.11875   -15.19      -62.02      -35.54      -16.07      
471.175     -15.24      -63.04      -35.88      -16.23      
471.23125   -15.41      -55.5       -35.4       -16.13      
471.2875    -15.41      -56.3       -36.45      -16.3       
471.34375   -15.47      -61.18      -35.69      -16.15      
471.4       -15.54      -57.71      -35.98      -16.28      
471.45625   -15.6       -65.08      -36.38      -15.95      
471.5125    -15.65      -59.33      -35.85      -16.15      
471.56875   -15.71      -65.76      -35.55      -16.05      
471.625     -15.67      -63.36      -36.0       -16.25      
471.68125   -15.77      -54.75      -35.13      -16.11      
471.7375    -15.86      -58.41      -35.46      -16.17      
471.79375   -15.87      -64.28      -35.36      -16.0       
471.85      -15.86      -58.16      -35.5       -16.18      
471.90625   -15.86      -68.54      -35.37      -16.02      
471.9625    -16.02      -58.1       -35.62      -16.34      
472.01875   -15.97      -59.46      -35.61      -16.08      
472.075     -16.03      -61.33      -35.25      -16.24      
472.13125   -16.01      -67.21      -34.49      -16.03      
472.1875    -16.12      -58.35      -35.11      -16.13      
472.24375   -16.18      -55.5       -34.66      -16.07      
472.3       -16.06      -64.25      -35.48      -16.02      
472.35625   -16.15      -55.23      -34.88      -16.03      
472.4125    -16.16      -57.34      -34.98      -16.19      
472.46875   -16.32      -59.84      -34.99      -16.0       
472.525     -16.29      -56.64      -34.66      -16.21      
472.58125   -16.27      -62.5       -33.92      -15.89      
472.6375    -16.38      -54.69      -35.09      -16.21      
472.69375   -16.2       -59.44      -34.72      -16.08      
472.75      -16.13      -66.94      -34.38      -16.15      
472.80625   -16.12      -68.1       -34.65      -16.1       
472.8625    -16.17      -66.19      -34.05      -16.15      
472.91875   -16.01      -57.11      -34.65      -16.01      
472.975     -16.01      -57.89      -34.36      -16.19      
473.03125   -15.92      -60.76      -34.48      -16.04      
473.0875    -15.69      -61.35      -33.96      -16.2       
473.14375   -15.71      -53.88      -34.19      -16.01      
473.2       -15.79      -59.78      -34.0       -16.1       
473.25625   -15.52      -61.35      -34.73      -16.18      
473.3125    -15.44      -62.47      -33.9       -16.19      
473.36875   -15.39      -66.34      -34.14      -16.04      
473.425     -15.21      -59.86      -33.91      -16.25      
473.48125   -15.14      -67.1       -33.99      -16.05      
473.5375    -15.05      -59.38      -33.82      -16.29      
473.59375   -14.88      -65.49      -33.81      -16.09      
473.65      -14.86      -59.6       -33.41      -16.19      
473.70625   -14.69      -56.53      -33.97      -16.0       
473.7625    -14.55      -61.2       -33.6       -16.17      
473.81875   -14.6       -60.13      -33.3       -15.98      
473.875     -14.4       -52.33      -33.76      -16.22      
473.93125   -14.35      -58.62      -33.76      -16.03      
473.9875    -14.1       -66.45      -32.91      -16.15      
474.04375   -13.97      -63.32      -33.31      -15.94      
474.1       -13.86      -59.8       -33.61      -16.23      
474.15625   -13.81      -60.51      -33.38      -16.04      
474.2125    -13.64      -68.96      -32.98      -16.2       
474.26875   -13.56      -56.4       -33.71      -16.04      
474.325     -13.45      -58.4       -32.89      -16.28      
474.38125   -13.27      -63.02      -33.04      -16.08      
474.4375    -13.08      -59.38      -32.47      -16.21      
474.49375   -13.05      -57.44      -33.86      -15.95      
474.55      -12.83      -52.68      -32.69      -16.1       
474.60625   -12.79      -50.73      -32.7       -16.02      
474.6625    -12.57      -56.17      -32.92      -16.19      
474.71875   -12.53      -60.03      -33.04      -16.04      
474.775     -12.39      -57.39      -32.1       -16.22      
474.83125   -12.21      -70.42      -33.04      -16.04      
474.8875    -12.05      -58.89      -32.13      -16.25      
474.94375   -12.05      -57.0       -33.24      -16.12      
475.0       -11.84      -57.47      -32.8       -16.23      
475.05625   -11.79      -54.34      -32.95      -15.98      
475.1125    -11.69      -62.75      -32.39      -16.2       
475.16875   -11.56      -61.51      -33.01      -16.02      
475.225     -11.46      -54.14      -32.26      -16.19      
475.28125   -11.4       -67.53      -32.5       -16.04      
475.3375    -11.29      -64.02      -31.97      -16.12      
475.39375   -11.11      -53.52      -32.94      -15.99      
475.45      -11.1       -56.92      -32.36      -16.19      
475.50625   -10.95      -60.34      -32.69      -16.04      
475.5625    -10.88      -58.66      -32.64      -16.2       
475.61875   -10.87      -61.86      -33.15      -16.0       
475.675     -10.72      -75.56      -32.23      -16.17      
475.73125   -10.66      -59.44      -32.65      -15.98      
475.7875    -10.51      -55.94      -31.98      -16.14      
475.84375   -10.53      -54.75      -32.52      -16.02      
475.9       -10.37      -57.26      -32.04      -16.24      
475.95625   -10.33      -60.35      -33.03      -16.0       
476.0125    -10.24      -59.14      -32.58      -16.17      
476.06875   -10.1       -54.11      -33.18      -16.08      
476.125     -10.11      -56.98      -32.85      -16.1       
476.18125   -10.01      -58.96      -32.07      -15.98      
476.2375    -9.92       -82.17      -32.44      -16.15      
476.29375   -9.92       -68.12      -32.95      -16.02      
476.35      -9.82       -58.4       -32.56      -16.24      
476.40625   -9.74       -79.86      -32.66      -15.98      
476.4625    -9.71       -59.17      -32.59      -16.16      
476.51875   -9.65       -67.36      -32.64      -16.06      
476.575     -9.62       -55.62      -32.72      -16.16      
476.63125   -9.61       -57.81      -33.22      -16.0       
476.6875    -9.47       -67.46      -32.91      -16.09      
476.74375   -9.5        -54.61      -32.7       -16.11      
476.8       -9.47       -59.08      -32.31      -16.17      
476.85625   -9.4        -61.89      -33.37      -16.14      
476.9125    -9.36       -70.75      -32.42      -16.04      
476.96875   -9.32       -59.68      -32.66      -15.93      
477.025     -9.29       -58.28      -32.4       -16.09      
477.08125   -9.28       -56.96      -32.9       -16.05      
477.1375    -9.22       -59.35      -32.58      -16.13      
477.19375   -9.23       -53.0       -33.4       -16.11      
477.25      -9.15       -60.48      -32.72      -16.17      
477.30625   -9.16       -60.92      -33.22      -16.0       
477.3625    -9.1        -56.06      -32.89      -16.25      
477.41875   -9.1        -59.2       -33.01      -15.98      
477.475     -9.04       -58.48      -33.1       -16.19      
477.53125   -9.05       -58.37      -33.1       -16.01      
477.5875    -9.02       -57.19      -33.08      -16.2       
477.64375   -9.07       -58.99      -33.59      -16.08      
477.7       -9.07       -64.84      -33.06      -16.09      
477.75625   -9.07       -57.24      -33.32      -16.03      
477.8125    -9.01       -60.79      -32.95      -16.22      
477.86875   -9.03       -59.91      -33.0       -16.03      
477.925     -9.03       -75.89      -33.4       -16.23      
477.98125   -9.03       -54.52      -33.06      -16.03      
478.0375    -8.99       -55.47      -32.9       -16.15      
478.09375   -9.0        -60.82      -33.08      -15.97      
478.15      -9.01       -65.97      -33.0       -16.11      
478.20625   -9.03       -59.25      -33.15      -16.03      
478.2625    -8.95       -57.83      -33.83      -16.19      
478.31875   -9.0        -58.79      -33.43      -16.06      
478.375     -9.07       -57.45      -33.56      -16.14      
478.43125   -9.09       -70.07      -33.43      -16.03      
478.4875    -9.12       -68.83      -33.53      -16.14      
478.54375   -9.12       -64.39      -33.78      -16.04      
478.6       -9.1        -63.53      -33.61      -16.15      
478.65625   -9.16       -64.4       -33.53      -16.06      
478.7125    -9.13       -58.62      -34.05      -16.12      
478.76875   -9.13       -60.17      -33.66      -16.04      
478.825     -9.11       -54.71      -34.18      -16.21      
478.88125   -9.2        -64.18      -33.84      -16.11      
478.9375    -9.21       -60.91      -33.89      -16.16      
478.99375   -9.26       -62.01      -33.58      -16.05      
479.05      -9.24       -55.74      -34.15      -16.1       
479.10625   -9.38       -56.59      -33.68      -16.11      
479.1625    -9.34       -58.0       -33.76      -16.1       
479.21875   -9.37       -54.65      -34.54      -16.15      
479.275     -9.39       -56.63      -34.47      -16.06      
479.33125   -9.45       -53.18      -34.16      -16.11      
479.3875    -9.52       -58.02      -34.2       -16.13      
479.44375   -9.58       -60.38      -34.16      -16.05      
479.5       -9.61       -57.35      -34.35      -16.13      
479.55625   -9.68       -65.02      -34.04      -16.04      
479.6125    -9.72       -52.78      -34.87      -16.11      
479.66875   -9.83       -71.7       -34.25      -16.05      
479.725     -9.87       -56.97      -35.13      -16.22      
479.78125   -9.87       -70.99      -34.05      -16.06      
479.8375    -10.0       -57.84      -33.92      -16.19      
479.89375   -10.13      -60.38      -34.75      -16.16      
479.95      -10.11      -59.51      -34.89      -16.21      
480.00625   -10.22      -60.13      -33.84      -16.08      
480.0625    -10.27      -61.35      -35.03      -16.1       
480.11875   -10.35      -54.37      -34.55      -16.17      
480.175     -10.38      -61.06      -35.13      -16.17      
480.23125   -10.48      -61.31      -33.73      -16.17      
480.2875    -10.6       -59.83      -35.39      -16.12      
480.34375   -10.62      -58.3       -34.7       -16.08      
480.4       -10.71      -57.56      -35.35      -16.24      
480.45625   -10.79      -63.55      -34.57      -16.12      
480.5125    -10.9       -58.59      -34.99      -16.14      
480.56875   -10.99      -55.16      -34.45      -16.03      
480.625     -11.02      -57.71      -35.81      -16.04      
480.68125   -11.14      -57.53      -34.69      -16.06      
480.7375    -11.19      -58.6       -34.94      -16.03      
480.79375   -11.3       -62.56      -34.66      -15.99      
480.85      -11.35      -52.56      -34.71      -16.1       
480.90625   -11.53      -82.21      -34.63      -16.08      
480.9625    -11.62      -66.87      -35.74      -16.18      
481.01875   -11.85      -61.62      -34.46      -16.12      
481.075     -11.95      -60.65      -36.11      -16.25      
481.13125   -12.07      -61.18      -35.43      -16.2       
481.1875    -12.11      -59.29      -35.76      -16.14      
481.24375   -12.26      -54.35      -34.71      -16.14      
481.3       -12.39      -54.89      -34.91      -16.16      
481.35625   -12.45      -86.18      -35.51      -16.12      
481.4125    -12.61      -53.84      -35.46      -16.12      
481.46875   -12.79      -65.1       -35.13      -16.22      
481.525     -12.94      -77.1       -36.14      -16.02      
481.58125   -13.02      -61.03      -35.35      -16.14      
481.6375    -13.07      -54.67      -36.29      -16.01      
481.69375   -13.24      -54.14      -34.68      -16.1       
481.75      -13.36      -54.87      -35.96      -16.27      
481.80625   -13.4       -59.29      -34.05      -16.18      
481.8625    -13.51      -59.3       -36.42      -16.18      
481.91875   -13.59      -69.8       -34.71      -16.13      
481.975     -13.81      -54.52      -35.74      -16.02      
482.03125   -13.9       -57.5       -34.91      -16.23      
482.0875    -13.93      -59.54      -35.05      -16.15      
482.14375   -14.09      -57.24      -33.93      -16.1       
482.2       -14.08      -66.18      -34.85      -16.11      
482.25625   -14.24      -55.2       -34.46      -16.15      
482.3125    -14.23      -60.84      -35.3       -16.06      
482.36875   -14.28      -54.47      -34.57      -16.12      
482.425     -14.3       -54.56      -35.27      -16.14      
482.48125   -14.61      -55.67      -34.69      -16.18      
482.5375    -14.55      -60.45      -35.0       -16.13      
482.59375   -14.54      -57.94      -34.92      -16.16      
482.65      -14.6       -57.91      -35.2       -16.17      
482.70625   -14.62      -58.33      -34.59      -16.17      
482.7625    -14.62      -58.62      -35.35      -16.16      
482.81875   -14.71      -58.08      -34.01      -16.09      
482.875     -14.64      -58.74      -34.71      -16.12      
482.93125   -14.48      -51.76      -34.11      -16.11      
482.9875    -14.5       -61.8       -34.59      -16.14      
483.04375   -14.37      -65.43      -34.68      -16.16      
483.1       -14.35      -52.05      -34.76      -16.17      
483.15625   -14.33      -57.28      -33.64      -16.04      
483.2125    -14.3       -61.97      -34.3       -16.05      
483.26875   -14.19      -65.29      -33.42      -16.17      
483.325     -14.12      -58.84      -34.25      -16.03      
483.38125   -14.22      -57.08      -34.07      -16.21      
483.4375    -13.95      -62.99      -33.69      -16.22      
483.49375   -13.95      -52.63      -33.79      -16.24      
483.55      -13.93      -66.11      -34.25      -16.08      
483.60625   -13.86      -56.81      -34.0       -16.28      
483.6625    -13.73      -70.85      -34.56      -15.98      
483.71875   -13.75      -52.24      -34.26      -16.21      
483.775     -13.73      -53.37      -34.43      -16.03      
483.83125   -13.74      -59.82      -33.52      -16.15      
483.8875    -13.63      -55.88      -34.04      -16.21      
483.94375   -13.52      -59.17      -33.99      -16.24      
484.0       -13.5       -55.33      -34.54      -16.08      
484.05625   -13.42      -56.67      -34.16      -16.26      
484.1125    -13.31      -63.17      -33.96      -16.26      
484.16875   -13.28      -55.75      -33.92      -16.2       
484.225     -13.22      -56.83      -33.62      -16.21      
484.28125   -13.22      -54.82      -33.94      -16.31      
484.3375    -13.19      -68.93      -33.49      -16.11      
484.39375   -13.04      -63.7       -34.15      -16.29      
484.45      -13.05      -62.93      -33.42      -16.1       
484.50625   -12.88      -62.03      -34.29      -16.16      
484.5625    -12.9       -55.38      -33.91      -16.12      
484.61875   -12.82      -55.81      -34.03      -16.3       
484.675     -12.87      -64.87      -34.06      -16.11      
484.73125   -12.94      -54.85      -34.42      -16.27      
484.7875    -12.85      -57.59      -34.29      -16.12      
484.84375   -12.94      -59.66      -33.9       -16.18      
484.9       -12.87      -64.27      -34.51      -16.12      
484.95625   -12.94      -66.1       -34.2       -16.28      
485.0125    -12.97      -58.72      -34.13      -16.05      
485.06875   -12.9       -55.14      -34.26      -16.03      
485.125     -12.86      -54.37      -33.96      -16.08      
485.18125   -13.04      -56.97      -34.46      -16.22      
485.2375    -12.97      -52.61      -33.94      -16.15      
485.29375   -13.1       -55.92      -34.85      -16.15      
485.35      -13.12      -62.58      -34.59      -16.12      
485.40625   -13.28      -67.27      -35.0       -16.2       
485.4625    -13.29      -57.28      -34.46      -16.11      
485.51875   -13.4       -64.95      -35.02      -16.14      
485.575     -13.49      -63.19      -34.13      -16.15      
485.63125   -13.52      -64.09      -35.45      -16.02      
485.6875    -13.59      -73.58      -34.33      -16.05      
485.74375   -13.73      -54.26      -35.25      -16.27      
485.8       -13.85      -55.22      -34.44      -16.18      
485.85625   -14.03      -60.03      -35.5       -16.2       
485.9125    -14.15      -57.44      -34.76      -16.15      
485.96875   -14.37      -60.05      -36.26      -16.25      
486.025     -14.54      -57.4       -35.27      -16.12      
486.08125   -14.85      -56.46      -35.4       -16.27      
486.1375    -15.08      -58.65      -34.81      -15.97      
486.19375   -15.32      -63.61      -35.84      -16.25      
486.25      -15.71      -60.27      -35.54      -16.13      
486.30625   -16.03      -55.77      -35.66      -16.28      
486.3625    -16.4       -60.65      -35.46      -16.22      
486.41875   -16.76      -63.27      -36.07      -16.26      
486.475     -17.06      -66.21      -36.15      -16.04      
486.53125   -17.41      -61.22      -37.34      -16.21      
486.5875    -17.8       -85.13      -36.78      -16.15      
486.64375   -18.53      -57.01      -37.31      -16.25      
486.7       -19.19      -59.08      -36.94      -16.07      
486.75625   -20.03      -64.68      -37.74      -16.22      
486.8125    -20.75      -61.75      -36.67      -16.1       
486.86875   -21.58      -61.07      -38.04      -16.39      
486.925     -22.49      -67.22      -36.05      -16.09      
486.98125   -23.48      -57.72      -37.01      -16.31      
487.0375    -24.5       -56.08      -36.84      -15.97      
487.09375   -25.83      -68.33      -37.02      -16.17      
487.15      -27.58      -58.74      -37.37      -16.16      
487.20625   -29.2       -54.68      -37.73      -16.4       
487.2625    -29.77      -54.9       -36.68      -16.11      
487.31875   -30.16      -56.12      -37.06      -16.18      
487.375     -29.14      -52.92      -37.01      -16.09      
487.43125   -27.84      -60.2       -37.89      -16.21      
487.4875    -25.87      -66.46      -36.05      -16.11      
487.54375   -24.69      -75.57      -36.8       -16.22      
487.6       -23.02      -64.17      -35.31      -16.17      
487.65625   -21.65      -61.6       -36.9       -16.37      
487.7125    -20.28      -57.2       -35.48      -16.12      
487.76875   -19.18      -60.73      -36.18      -16.29      
487.825     -18.26      -53.67      -35.88      -16.06      
487.88125   -17.31      -55.17      -35.93      -16.36      
487.9375    -16.35      -57.84      -36.08      -16.17      
487.99375   -15.55      -61.3       -36.57      -16.23      
488.05      -14.84      -61.88      -35.39      -16.13      
488.10625   -14.03      -58.84      -35.95      -16.36      
488.1625    -13.3       -54.9       -34.74      -16.07      
488.21875   -12.77      -56.39      -35.4       -16.37      
488.275     -12.19      -55.8       -34.04      -16.07      
488.33125   -11.75      -57.58      -35.03      -16.36      
488.3875    -11.21      -58.77      -35.15      -16.04      
488.44375   -10.79      -55.09      -35.3       -16.36      
488.5       -10.43      -60.72      -34.41      -16.19      
488.55625   -9.99       -55.77      -34.86      -16.36      
488.6125    -9.6        -63.25      -34.49      -16.1       
488.66875   -9.26       -54.14      -34.77      -16.43      
488.725     -8.88       -62.72      -34.36      -16.14      
488.78125   -8.55       -62.97      -34.89      -16.23      
488.8375    -8.27       -67.59      -34.78      -16.28      
488.89375   -7.98       -60.26      -34.87      -16.42      
488.95      -7.66       -54.98      -34.29      -16.15      
489.00625   -7.38       -59.56      -35.35      -16.33      
489.0625    -7.15       -55.87      -34.23      -16.21      
489.11875   -6.93       -67.79      -35.73      -16.39      
489.175     -6.7        -55.35      -34.72      -16.17      
489.23125   -6.51       -63.67      -35.52      -16.26      
489.2875    -6.3        -58.41      -34.88      -16.15      
489.34375   -6.18       -55.24      -35.46      -16.28      
489.4       -5.95       -56.66      -35.34      -16.09      
489.45625   -5.81       -59.1       -35.83      -16.38      
489.5125    -5.58       -55.54      -35.7       -16.09      
489.56875   -5.39       -55.71      -36.05      -16.38      
489.625     -5.23       -64.01      -35.78      -16.2       
489.68125   -5.11       -57.35      -35.89      -16.41      
489.7375    -4.95       -72.17      -35.35      -16.25      
489.79375   -4.86       -58.96      -36.24      -16.39      
489.85      -4.7        -68.01      -35.94      -16.25      
489.90625   -4.63       -60.47      -36.44      -16.3       
489.9625    -4.52       -58.23      -36.87      -16.14      
490.01875   -4.45       -70.2       -36.37      -16.39      
490.075     -4.35       -61.17      -36.56      -16.25      
490.13125   -4.26       -56.65      -37.6       -16.29      
490.1875    -4.14       -56.35      -37.46      -16.2       
490.24375   -4.1        -63.44      -36.85      -16.27      
490.3       -4.0        -55.1       -37.74      -16.07      
490.35625   -3.9        -57.06      -37.01      -16.29      
490.4125    -3.8        -58.61      -38.91      -16.11      
490.46875   -3.79       -59.9       -37.35      -16.34      
490.525     -3.66       -59.47      -37.67      -16.21      
490.58125   -3.69       -57.77      -38.18      -16.42      
490.6375    -3.59       -61.65      -38.39      -16.16      
490.69375   -3.55       -54.59      -39.09      -16.34      
490.75      -3.45       -57.16      -39.61      -16.16      
490.80625   -3.46       -65.38      -38.41      -16.41      
490.8625    -3.39       -61.0       -40.04      -16.19      
490.91875   -3.36       -61.41      -39.19      -16.44      
490.975     -3.29       -58.05      -39.93      -16.26      
491.03125   -3.26       -61.41      -39.8       -16.4       
491.0875    -3.16       -78.11      -41.09      -16.12      
491.14375   -3.2        -60.11      -40.5       -16.34      
491.2       -3.12       -62.61      -40.71      -16.18      
491.25625   -3.12       -74.09      -39.7       -16.25      
491.3125    -3.07       -65.73      -41.66      -16.21      
491.36875   -3.08       -56.03      -40.31      -16.32      
491.425     -3.04       -58.97      -41.47      -16.3       
491.48125   -3.0        -62.0       -39.85      -16.29      
491.5375    -2.95       -57.64      -42.98      -16.25      
491.59375   -2.94       -61.28      -41.16      -16.34      
491.65      -2.86       -66.88      -42.55      -16.24      
491.70625   -2.88       -57.87      -42.39      -16.38      
491.7625    -2.87       -61.31      -42.1       -16.27      
491.81875   -2.8        -55.93      -41.34      -16.39      
491.875     -2.79       -59.24      -45.15      -16.29      
491.93125   -2.79       -57.65      -41.88      -16.41      
491.9875    -2.78       -57.35      -43.46      -16.23      
492.04375   -2.76       -55.89      -42.36      -16.44      
492.1       -2.74       -63.87      -43.8       -16.25      
492.15625   -2.69       -59.25      -43.72      -16.33      
492.2125    -2.66       -60.2       -43.21      -16.28      
492.26875   -2.69       -63.1       -42.07      -16.5       
492.325     -2.65       -52.59      -45.6       -16.29      
492.38125   -2.64       -58.05      -45.4       -16.39      
492.4375    -2.61       -62.35      -45.9       -16.31      
492.49375   -2.64       -60.4       -44.99      -16.3       
492.55      -2.59       -57.56      -45.46      -16.23      
492.60625   -2.58       -60.35      -42.9       -16.51      
492.6625    -2.54       -57.22      -44.51      -16.3       
492.71875   -2.57       -69.68      -44.34      -16.42      
492.775     -2.52       -60.37      -46.51      -16.27      
492.83125   -2.56       -55.58      -42.8       -16.43      
492.8875    -2.52       -57.85      -44.88      -16.39      
492.94375   -2.56       -60.88      -44.2       -16.4       
493.0       -2.45       -57.59      -49.41      -16.23      
493.05625   -2.5        -55.07      -44.79      -16.41      
493.1125    -2.47       -52.05      -49.07      -16.23      
493.16875   -2.45       -54.06      -47.1       -16.44      
493.225     -2.41       -58.91      -48.72      -16.32      
493.28125   -2.44       -60.35      -45.86      -16.46      
493.3375    -2.45       -57.66      -50.91      -16.3       
493.39375   -2.43       -55.59      -46.31      -16.44      
493.45      -2.36       -60.72      -48.38      -16.33      
493.50625   -2.46       -60.18      -46.1       -16.39      
493.5625    -2.38       -57.46      -48.83      -16.37      
493.61875   -2.4        -67.42      -47.94      -16.36      
493.675     -2.34       -60.52      -48.07      -16.34      
493.73125   -2.39       -67.39      -47.29      -16.51      
493.7875    -2.34       -65.49      -49.68      -16.34      
493.84375   -2.42       -59.47      -46.27      -16.39      
493.9       -2.36       -59.36      -47.04      -16.4       
493.95625   -2.37       -60.53      -49.56      -16.43      
494.0125    -2.34       -59.03      -52.68      -16.38      
494.06875   -2.36       -60.4       -50.42      -16.38      
494.125     -2.37       -55.5       -52.41      -16.24      
494.18125   -2.36       -83.91      -47.96      -16.3       
494.2375    -2.34       -58.1       -48.76      -16.29      
494.29375   -2.33       -59.81      -49.5       -16.38      
494.35      -2.32       -59.91      -54.45      -16.28      
494.40625   -2.36       -59.59      -50.13      -16.39      
494.4625    -2.29       -55.62      -51.63      -16.38      
494.51875   -2.35       -55.24      -50.19      -16.44      
494.575     -2.26       -60.28      -51.59      -16.3       
494.63125   -2.28       -65.03      -52.05      -16.5       
494.6875    -2.27       -71.83      -52.48      -16.25      
494.74375   -2.29       -69.02      -50.15      -16.38      
494.8       -2.26       -60.44      -60.61      -16.26      
494.85625   -2.28       -65.39      -49.87      -16.4       
494.9125    -2.25       -71.04      -53.28      -16.43      
494.96875   -2.29       -54.28      -51.66      -16.55      
495.025     -2.26       -54.64      -56.46      -16.44      
495.08125   -2.25       -60.82      -55.73      -16.29      
495.1375    -2.26       -53.49      -51.13      -16.41      
495.19375   -2.23       -53.14      -54.33      -16.32      
495.25      -2.25       -52.0       -53.0       -16.55      
495.30625   -2.24       -64.9       -58.48      -16.3       
495.3625    -2.27       -53.96      -51.42      -16.38      
495.41875   -2.2        -65.38      -54.03      -16.36      
495.475     -2.23       -57.91      -50.0       -16.44      
495.53125   -2.25       -58.56      -71.13      -16.38      
495.5875    -2.25       -62.05      -51.36      -16.52      
495.64375   -2.21       -65.99      -65.35      -16.36      
495.7       -2.25       -60.4       -49.82      -16.58      
495.75625   -2.25       -58.16      -60.95      -16.37      
495.8125    -2.27       -54.21      -57.66      -16.49      
495.86875   -2.18       -57.41      -52.88      -16.38      
495.925     -2.23       -58.04      -51.24      -16.43      
495.98125   -2.24       -55.3       -58.89      -16.4       
496.0375    -2.22       -64.4       -51.97      -16.5       
496.09375   -2.2        -53.34      -57.2       -16.38      
496.15      -2.24       -58.48      -49.78      -16.48      
496.20625   -2.23       -62.17      -67.18      -16.42      
496.2625    -2.22       -61.84      -51.27      -16.54      
496.31875   -2.21       -55.53      -57.36      -16.35      
496.375     -2.21       -57.53      -50.09      -16.6       
496.43125   -2.17       -68.0       -69.24      -16.45      
496.4875    -2.21       -63.08      -52.74      -16.43      
496.54375   -2.16       -57.95      -57.48      -16.35      
496.6       -2.19       -69.61      -59.21      -16.47      
496.65625   -2.18       -56.99      -67.11      -16.39      
496.7125    -2.21       -57.98      -57.49      -16.46      
496.76875   -2.18       -57.83      -65.4       -16.4       
496.825     -2.24       -59.17      -59.55      -16.58      
496.88125   -2.21       -64.11      -60.42      -16.29      
496.9375    -2.24       -59.44      -53.42      -16.54      
496.99375   -2.18       -63.73      -56.11      -16.37      
497.05      -2.21       -62.39      -54.66      -16.58      
497.10625   -2.22       -54.81      -63.19      -16.27      
497.1625    -2.19       -69.15      -55.19      -16.66      
497.21875   -2.2        -68.14      -59.27      -16.32      
497.275     -2.22       -59.53      -52.93      -16.59      
497.33125   -2.16       -56.55      -68.45      -16.41      
497.3875    -2.17       -63.15      -51.8       -16.62      
497.44375   -2.2        -61.0       -54.29      -16.37      
497.5       -2.22       -65.18      -54.79      -16.57      
497.55625   -2.17       -53.47      -60.11      -16.43      
497.6125    -2.17       -56.52      -51.62      -16.55      
497.66875   -2.16       -55.84      -57.49      -16.38      
497.725     -2.17       -59.27      -52.48      -16.58      
497.78125   -2.18       -61.97      -64.34      -16.5       
497.8375    -2.18       -57.06      -51.57      -16.61      
497.89375   -2.18       -66.85      -67.24      -16.37      
497.95      -2.18       -58.2       -51.85      -16.52      
498.00625   -2.17       -62.92      -61.93      -16.41      
498.0625    -2.15       -57.55      -52.94      -16.67      
498.11875   -2.17       -62.44      -55.57      -16.44      
498.175     -2.16       -58.02      -55.63      -16.65      
498.23125   -2.15       -69.11      -64.65      -16.48      
498.2875    -2.23       -59.21      -54.14      -16.67      
498.34375   -2.21       -82.48      -59.93      -16.46      
498.4       -2.19       -63.48      -65.49      -16.54      
498.45625   -2.18       -58.95      -57.22      -16.48      
498.5125    -2.18       -66.41      -55.56      -16.64      
498.56875   -2.2        -54.0       -57.18      -16.49      
498.625     -2.18       -61.37      -62.54      -16.65      
498.68125   -2.19       -53.9       -63.1       -16.52      
498.7375    -2.21       -57.47      -50.0       -16.56      
498.79375   -2.19       -60.39      -69.36      -16.59      
498.85      -2.18       -71.58      -52.16      -16.62      
498.90625   -2.14       -66.31      -65.12      -16.47      
498.9625    -2.13       -54.13      -64.69      -16.65      
499.01875   -2.17       -56.25      -56.47      -16.51      
499.075     -2.14       -61.54      -57.73      -16.73      
499.13125   -2.12       -57.1       -74.55      -16.55      
499.1875    -2.16       -57.59      -53.02      -16.58      
499.24375   -2.13       -65.77      -62.23      -16.56      
499.3       -2.14       -57.56      -57.67      -16.61      
499.35625   -2.14       -57.13      -55.83      -16.47      
499.4125    -2.15       -57.84      -53.79      -16.63      
499.46875   -2.15       -62.19      -67.23      -16.53      
499.525     -2.15       -73.34      -50.79      -16.78      
499.58125   -2.13       -52.28      -63.28      -16.49      
499.6375    -2.16       -59.65      -54.16      -16.67      
499.69375   -2.18       -57.7       -61.35      -16.44      
499.75      -2.16       -60.16      -55.07      -16.56      
499.80625   -2.13       -60.02      -57.92      -16.56      
499.8625    -2.14       -63.75      -54.35      -16.57      
499.91875   -2.12       -61.23      -62.8       -16.58      
499.975     -2.16       -58.63      -53.56      -16.71      
500.03125   -2.17       -61.1       -57.07      -16.57      
500.0875    -2.16       -54.34      -54.26      -16.69      
500.14375   -2.13       -57.11      -54.1       -16.57      
500.2       -2.13       -59.13      -60.87      -16.83      
500.25625   -2.11       -60.85      -66.24      -16.58      
500.3125    -2.16       -58.57      -58.09      -16.64      
500.36875   -2.15       -75.01      -63.1       -16.57      
500.425     -2.18       -83.88      -52.5       -16.7       
500.48125   -2.12       -65.89      -64.0       -16.56      
500.5375    -2.14       -59.22      -52.39      -16.72      
500.59375   -2.12       -54.63      -61.11      -16.61      
500.65      -2.11       -61.58      -60.38      -16.78      
500.70625   -2.12       -65.13      -62.74      -16.63      
500.7625    -2.1        -60.02      -57.37      -16.75      
500.81875   -2.14       -66.95      -75.56      -16.52      
500.875     -2.16       -66.07      -55.8       -16.78      
500.93125   -2.13       -58.47      -69.07      -16.6       
500.9875    -2.15       -55.05      -53.89      -16.61      
501.04375   -2.1        -61.07      -53.95      -16.58      
501.1       -2.15       -53.78      -61.57      -16.73      
501.15625   -2.16       -55.43      -53.98      -16.58      
501.2125    -2.15       -63.65      -54.66      -16.75      
501.26875   -2.12       -68.58      -56.39      -16.65      
501.325     -2.09       -54.56      -55.42      -16.68      
501.38125   -2.11       -56.1       -54.91      -16.69      
501.4375    -2.15       -59.51      -66.27      -16.66      
501.49375   -2.13       -65.74      -50.42      -16.68      
501.55      -2.1        -58.69      -55.62      -16.8       
501.60625   -2.1        -71.55      -71.49      -16.61      
501.6625    -2.17       -58.82      -59.22      -16.62      
501.71875   -2.13       -66.39      -73.76      -16.66      
501.775     -2.17       -61.67      -61.27      -16.72      
501.83125   -2.11       -59.11      -62.26      -16.65      
501.8875    -2.14       -52.78      -58.02      -16.8       
501.94375   -2.14       -69.93      -68.48      -16.62      
502.0       -2.13       -54.4       -55.38      -16.79      
502.05625   -2.11       -72.96      -55.77      -16.73      
502.1125    -2.16       -57.81      -57.48      -16.69      
502.16875   -2.12       -57.0       -53.46      -16.62      
502.225     -2.17       -66.16      -69.82      -16.8       
502.28125   -2.12       -55.42      -56.65      -16.71      
502.3375    -2.14       -59.61      -63.12      -16.71      
502.39375   -2.1        -63.67      -62.86      -16.68      
502.45      -2.17       -69.04      -55.59      -16.85      
502.50625   -2.16       -58.81      -60.62      -16.74      
502.5625    -2.16       -69.44      -56.35      -16.82      
502.61875   -2.15       -55.65      -58.22      -16.67      
502.675     -2.15       -50.99      -57.06      -16.75      
502.73125   -2.13       -58.37      -61.01      -16.73      
502.7875    -2.12       -60.14      -60.31      -16.71      
502.84375   -2.14       -54.96      -66.04      -16.81      
502.9       -2.14       -82.1       -57.27      -16.78      
502.95625   -2.16       -62.27      -53.89      -16.64      
503.0125    -2.18       -67.79      -79.28      -16.85      
503.06875   -2.17       -56.52      -64.92      -16.87      
503.125     -2.15       -53.48      -53.48      -16.79      
503.18125   -2.14       -54.66      -61.43      -16.68      
503.2375    -2.12       -61.13      -63.66      -16.76      
503.29375   -2.16       -64.17      -57.7       -16.68      
503.35      -2.13       -56.76      -59.34      -16.89      
503.40625   -2.17       -53.16      -54.96      -16.62      
503.4625    -2.17       -54.62      -58.08      -16.86      
503.51875   -2.13       -53.22      -56.33      -16.8       
503.575     -2.18       -56.81      -68.76      -16.77      
503.63125   -2.14       -66.48      -59.97      -16.74      
503.6875    -2.17       -56.5       -66.57      -16.91      
503.74375   -2.15       -56.43      -57.79      -16.86      
503.8       -2.18       -59.6       -60.4       -16.93      
503.85625   -2.16       -57.74      -56.84      -16.79      
503.9125    -2.16       -61.15      -56.08      -16.86      
503.96875   -2.12       -65.49      -59.7       -16.76      
504.025     -2.18       -52.85      -62.28      -16.71      
504.08125   -2.18       -60.27      -60.13      -16.76      
504.1375    -2.13       -63.87      -58.79      -16.85      
504.19375   -2.15       -60.19      -52.74      -16.79      
504.25      -2.16       -63.86      -65.58      -16.77      
504.30625   -2.14       -57.0       -62.51      -16.9       
504.3625    -2.12       -66.5       -51.43      -16.87      
504.41875   -2.14       -54.95      -58.38      -16.81      
504.475     -2.2        -71.74      -56.28      -16.83      
504.53125   -2.14       -59.12      -57.12      -16.79      
504.5875    -2.18       -54.93      -59.16      -16.87      
504.64375   -2.18       -62.72      -56.04      -16.88      
504.7       -2.22       -56.69      -60.75      -16.75      
504.75625   -2.19       -60.73      -60.16      -16.86      
504.8125    -2.2        -54.86      -56.91      -16.83      
504.86875   -2.19       -58.2       -57.71      -16.79      
504.925     -2.21       -61.91      -55.79      -16.88      
504.98125   -2.16       -61.77      -54.38      -16.83      
505.0375    -2.18       -61.14      -65.94      -16.84      
505.09375   -2.19       -60.28      -61.6       -16.88      
505.15      -2.21       -70.58      -61.01      -16.75      
505.20625   -2.22       -54.28      -65.77      -16.93      
505.2625    -2.21       -62.06      -67.96      -16.87      
505.31875   -2.19       -58.51      -52.45      -16.94      
505.375     -2.2        -73.61      -57.08      -16.83      
505.43125   -2.22       -55.83      -59.46      -16.78      
505.4875    -2.22       -57.65      -58.62      -16.94      
505.54375   -2.2        -57.61      -56.69      -16.92      
505.6       -2.22       -54.86      -58.44      -16.93      
505.65625   -2.21       -57.58      -55.15      -17.02      
505.7125    -2.25       -63.73      -54.37      -16.92      
505.76875   -2.22       -58.33      -57.53      -16.88      
505.825     -2.22       -57.05      -64.53      -16.9       
505.88125   -2.23       -55.97      -53.5       -16.92      
505.9375    -2.25       -58.11      -72.98      -16.89      
505.99375   -2.26       -62.12      -56.06      -16.97      
506.05      -2.24       -61.72      -58.36      -16.92      
506.10625   -2.23       -54.66      -53.44      -16.98      
506.1625    -2.26       -60.91      -56.11      -16.86      
506.21875   -2.26       -57.85      -63.27      -16.9       
506.275     -2.27       -55.63      -58.51      -16.86      
506.33125   -2.23       -58.93      -53.55      -16.85      
506.3875    -2.31       -53.59      -61.08      -17.09      
506.44375   -2.24       -57.73      -54.63      -16.89      
506.5       -2.26       -55.88      -65.06      -16.88      
506.55625   -2.22       -54.29      -71.62      -16.95      
506.6125    -2.24       -55.64      -59.84      -16.88      
506.66875   -2.24       -57.28      -52.68      -17.08      
506.725     -2.27       -58.61      -60.29      -16.87      
506.78125   -2.27       -59.44      -53.38      -16.97      
506.8375    -2.34       -63.78      -64.95      -17.05      
506.89375   -2.32       -59.68      -62.58      -17.16      
506.95      -2.32       -56.28      -61.26      -16.93      
507.00625   -2.3        -64.71      -58.4       -17.07      
507.0625    -2.32       -66.88      -61.92      -16.99      
507.11875   -2.33       -66.97      -59.18      -17.01      
507.175     -2.29       -54.55      -60.57      -16.9       
507.23125   -2.35       -56.43      -59.78      -16.96      
507.2875    -2.32       -55.75      -57.57      -16.91      
507.34375   -2.28       -60.64      -58.56      -16.98      
507.4       -2.32       -71.87      -58.03      -16.85      
507.45625   -2.28       -62.47      -53.89      -17.08      
507.5125    -2.29       -53.81      -69.54      -16.97      
507.56875   -2.35       -60.57      -50.51      -17.07      
507.625     -2.3        -61.18      -61.67      -16.97      
507.68125   -2.34       -66.1       -67.29      -17.14      
507.7375    -2.39       -57.23      -64.15      -16.92      
507.79375   -2.33       -60.4       -59.29      -17.08      
507.85      -2.38       -57.95      -56.69      -16.99      
507.90625   -2.32       -56.35      -57.81      -17.17      
507.9625    -2.34       -57.74      -61.42      -17.02      
508.01875   -2.36       -58.03      -67.2       -17.01      
508.075     -2.38       -58.93      -67.0       -16.95      
508.13125   -2.39       -60.27      -54.53      -17.05      
508.1875    -2.34       -58.44      -75.01      -17.01      
508.24375   -2.4        -61.63      -66.38      -17.1       
508.3       -2.41       -57.92      -66.67      -17.06      
508.35625   -2.4        -70.97      -59.95      -17.16      
508.4125    -2.43       -61.15      -56.15      -17.04      
508.46875   -2.4        -56.38      -52.58      -17.01      
508.525     -2.42       -53.52      -72.71      -16.98      
508.58125   -2.38       -64.05      -61.42      -17.13      
508.6375    -2.36       -56.81      -65.52      -17.14      
508.69375   -2.37       -63.6       -61.23      -17.05      
508.75      -2.42       -62.04      -60.86      -17.05      
508.80625   -2.42       -57.5       -58.71      -17.06      
508.8625    -2.41       -64.97      -61.78      -17.19      
508.91875   -2.37       -59.29      -51.18      -17.25      
508.975     -2.43       -62.17      -63.26      -17.11      
509.03125   -2.39       -64.2       -57.69      -17.12      
509.0875    -2.45       -62.58      -63.41      -17.01      
509.14375   -2.44       -62.94      -59.22      -17.24      
509.2       -2.42       -60.89      -64.5       -17.04      
509.25625   -2.44       -56.16      -53.09      -17.2       
509.3125    -2.42       -76.03      -59.71      -17.09      
509.36875   -2.42       -54.98      -52.88      -17.16      
509.425     -2.43       -62.8       -62.76      -17.11      
509.48125   -2.44       -68.75      -54.0       -17.22      
509.5375    -2.45       -54.28      -70.66      -17.05      
509.59375   -2.45       -56.29      -55.41      -17.28      
509.65      -2.45       -61.03      -62.09      -17.19      
509.70625   -2.48       -67.97      -53.65      -17.23      
509.7625    -2.47       -63.52      -63.09      -17.1       
509.81875   -2.49       -71.18      -65.38      -17.27      
509.875     -2.46       -59.1       -70.98      -17.14      
509.93125   -2.46       -68.31      -59.1       -17.21      
509.9875    -2.47       -60.86      -58.51      -17.1       
510.04375   -2.52       -55.25      -55.32      -17.2       
510.1       -2.46       -57.19      -70.47      -17.05      
510.15625   -2.44       -54.04      -67.22      -17.25      
510.2125    -2.45       -55.52      -56.18      -16.97      
510.26875   -2.48       -60.06      -58.02      -17.18      
510.325     -2.48       -59.62      -61.23      -17.01      
510.38125   -2.47       -60.2       -60.17      -17.33      
510.4375    -2.5        -55.66      -62.38      -17.1       
510.49375   -2.54       -55.71      -58.23      -17.23      
510.55      -2.53       -63.94      -76.69      -17.08      
510.60625   -2.56       -64.65      -57.12      -17.32      
510.6625    -2.52       -57.75      -54.78      -17.12      
510.71875   -2.52       -54.48      -55.57      -17.19      
510.775     -2.52       -63.76      -59.62      -17.21      
510.83125   -2.5        -57.07      -60.92      -17.34      
510.8875    -2.51       -62.7       -59.47      -17.06      
510.94375   -2.51       -63.47      -57.73      -17.14      
511.0       -2.49       -54.66      -57.37      -17.12      
511.05625   -2.48       -68.7       -52.89      -17.26      
511.1125    -2.49       -59.53      -64.25      -17.15      
511.16875   -2.49       -56.99      -58.17      -17.3       
511.225     -2.51       -52.08      -65.88      -17.1       
511.28125   -2.52       -53.87      -55.55      -17.39      
511.3375    -2.51       -59.52      -62.46      -17.17      
511.39375   -2.49       -63.54      -65.99      -17.24      
511.45      -2.49       -56.8       -63.35      -17.19      
511.50625   -2.48       -57.57      -60.86      -17.39      
511.5625    -2.52       -61.6       -67.07      -17.14      
511.61875   -2.56       -57.4       -64.75      -17.36      
511.675     -2.55       -52.23      -54.52      -17.19      
511.73125   -2.55       -61.46      -55.36      -17.43      
511.7875    -2.57       -56.88      -59.06      -17.11      
511.84375   -2.52       -72.8       -59.27      -17.31      
511.9       -2.5        -68.9       -54.77      -17.11      
511.95625   -2.54       -64.48      -64.39      -17.43      
512.0125    -2.54       -61.03      -53.76      -17.22      
512.06875   -2.5        -70.89      -61.38      -17.42      
512.125     -2.49       -65.52      -54.52      -17.13      
512.18125   -2.49       -64.59      -72.63      -17.39      
512.2375    -2.51       -56.32      -57.44      -17.21      
512.29375   -2.53       -60.54      -54.58      -17.39      
512.35      -2.53       -70.52      -59.27      -17.16      
512.40625   -2.49       -54.33      -53.86      -17.4       
512.4625    -2.54       -59.87      -55.52      -17.2       
512.51875   -2.5        -59.4       -55.56      -17.36      
512.575     -2.54       -59.78      -55.01      -17.3       
512.63125   -2.5        -60.73      -65.85      -17.42      
512.6875    -2.53       -54.75      -66.63      -17.32      
512.74375   -2.55       -56.89      -55.23      -17.43      
512.8       -2.55       -53.97      -57.46      -17.4       
512.85625   -2.53       -61.4       -59.62      -17.28      
512.9125    -2.55       -67.38      -59.72      -17.27      
512.96875   -2.54       -60.47      -55.95      -17.41      
513.025     -2.54       -55.58      -53.3       -17.32      
513.08125   -2.53       -64.48      -73.56      -17.43      
513.1375    -2.53       -57.63      -73.79      -17.34      
513.19375   -2.51       -70.51      -69.01      -17.58      
513.25      -2.51       -58.82      -56.62      -17.29      
513.30625   -2.51       -63.33      -62.29      -17.39      
513.3625    -2.51       -61.96      -60.17      -17.26      
513.41875   -2.52       -65.59      -56.38      -17.37      
513.475     -2.54       -55.46      -59.81      -17.27      
513.53125   -2.55       -58.47      -56.09      -17.53      
513.5875    -2.54       -64.7       -52.9       -17.47      
513.64375   -2.51       -58.27      -69.33      -17.52      
513.7       -2.49       -56.27      -59.89      -17.29      
513.75625   -2.52       -54.75      -69.83      -17.57      
513.8125    -2.48       -54.98      -58.83      -17.47      
513.86875   -2.51       -58.51      -62.92      -17.53      
513.925     -2.54       -58.85      -55.21      -17.42      
513.98125   -2.53       -53.38      -56.81      -17.62      
514.0375    -2.57       -53.69      -53.08      -17.34      
514.09375   -2.53       -63.72      -61.94      -17.5       
514.15      -2.55       -55.13      -60.88      -17.38      
514.20625   -2.54       -53.19      -57.27      -17.5       
514.2625    -2.59       -58.56      -62.11      -17.35      
514.31875   -2.54       -61.01      -53.49      -17.48      
514.375     -2.49       -74.21      -65.24      -17.29      
514.43125   -2.46       -54.8       -66.24      -17.59      
514.4875    -2.51       -52.66      -60.31      -17.41      
514.54375   -2.44       -54.59      -61.48      -17.37      
514.6       -2.51       -74.42      -55.82      -17.27      
514.65625   -2.51       -61.96      -64.01      -17.56      
514.7125    -2.53       -56.82      -61.26      -17.34      
514.76875   -2.47       -56.42      -55.05      -17.57      
514.825     -2.5        -62.48      -61.02      -17.47      
514.88125   -2.5        -72.26      -74.0       -17.58      
514.9375    -2.51       -54.55      -73.78      -17.35      
514.99375   -2.55       -59.65      -84.57      -17.44      
515.05      -2.53       -57.69      -61.95      -17.52      
515.10625   -2.5        -57.42      -63.33      -17.54      
515.1625    -2.53       -57.04      -57.71      -17.45      
515.21875   -2.55       -64.24      -67.69      -17.55      
515.275     -2.54       -68.86      -57.69      -17.34      
515.33125   -2.51       -66.19      -56.76      -17.6       
515.3875    -2.54       -60.86      -54.79      -17.3       
515.44375   -2.54       -56.21      -56.71      -17.6       
515.5       -2.56       -63.39      -59.32      -17.56      
515.55625   -2.51       -58.0       -57.71      -17.53      
515.6125    -2.51       -52.07      -63.04      -17.42      
515.66875   -2.49       -60.59      -57.5       -17.56      
515.725     -2.49       -60.52      -55.41      -17.53      
515.78125   -2.46       -57.12      -63.59      -17.55      
515.8375    -2.53       -60.58      -54.15      -17.42      
515.89375   -2.49       -67.23      -70.15      -17.45      
515.95      -2.51       -61.02      -63.05      -17.55      
516.00625   -2.51       -61.23      -56.97      -17.55      
516.0625    -2.51       -64.42      -63.04      -17.44      
516.11875   -2.46       -66.27      -59.13      -17.62      
516.175     -2.5        -55.64      -56.69      -17.41      
516.23125   -2.52       -59.08      -55.09      -17.57      
516.2875    -2.48       -57.0       -63.56      -17.44      
516.34375   -2.49       -53.4       -62.65      -17.66      
516.4       -2.5        -57.9       -54.19      -17.49      
516.45625   -2.51       -54.8       -62.36      -17.73      
516.5125    -2.52       -84.16      -62.82      -17.44      
516.56875   -2.46       -69.4       -78.87      -17.52      
516.625     -2.49       -60.03      -60.8       -17.55      
516.68125   -2.48       -57.94      -62.79      -17.73      
516.7375    -2.49       -60.33      -59.91      -17.62      
516.79375   -2.5        -62.0       -59.81      -17.59      
516.85      -2.52       -61.26      -63.33      -17.54      
516.90625   -2.47       -60.46      -59.54      -17.64      
516.9625    -2.49       -56.22      -61.89      -17.5       
517.01875   -2.48       -67.72      -60.69      -17.74      
517.075     -2.49       -62.69      -56.01      -17.59      
517.13125   -2.49       -68.28      -58.99      -17.62      
517.1875    -2.48       -55.23      -59.04      -17.46      
517.24375   -2.51       -60.22      -61.48      -17.57      
517.3       -2.48       -54.95      -58.25      -17.45      
517.35625   -2.43       -59.31      -74.07      -17.65      
517.4125    -2.51       -58.22      -63.9       -17.67      
517.46875   -2.45       -60.24      -62.56      -17.81      
517.525     -2.5        -51.63      -55.35      -17.55      
517.58125   -2.47       -56.81      -80.53      -17.66      
517.6375    -2.52       -59.49      -57.37      -17.51      
517.69375   -2.54       -60.77      -62.27      -17.74      
517.75      -2.5        -54.73      -56.32      -17.64      
517.80625   -2.49       -60.87      -59.58      -17.75      
517.8625    -2.52       -56.57      -59.72      -17.61      
517.91875   -2.48       -55.33      -62.5       -17.67      
517.975     -2.52       -65.51      -63.76      -17.6       
518.03125   -2.5        -55.8       -63.16      -17.76      
518.0875    -2.51       -60.17      -64.71      -17.57      
518.14375   -2.44       -59.32      -68.32      -17.7       
518.2       -2.46       -57.92      -64.45      -17.7       
518.25625   -2.46       -57.18      -72.67      -17.7       
518.3125    -2.43       -56.06      -55.96      -17.67      
518.36875   -2.5        -54.76      -60.44      -17.69      
518.425     -2.49       -57.18      -58.38      -17.62      
518.48125   -2.48       -59.67      -68.44      -17.73      
518.5375    -2.49       -58.03      -59.11      -17.6       
518.59375   -2.44       -76.12      -58.45      -17.67      
518.65      -2.5        -64.31      -56.84      -17.58      
518.70625   -2.49       -62.66      -58.64      -17.88      
518.7625    -2.45       -63.18      -64.57      -17.62      
518.81875   -2.46       -58.83      -54.55      -17.69      
518.875     -2.44       -59.85      -60.9       -17.63      
518.93125   -2.49       -61.44      -65.18      -17.79      
518.9875    -2.47       -73.0       -59.22      -17.78      
519.04375   -2.46       -76.06      -63.11      -17.76      
519.1       -2.49       -58.27      -55.13      -17.84      
519.15625   -2.48       -65.32      -56.76      -17.78      
519.2125    -2.5        -53.4       -60.03      -17.55      
519.26875   -2.49       -70.87      -62.58      -17.77      
519.325     -2.5        -57.64      -55.79      -17.83      
519.38125   -2.48       -66.92      -72.97      -17.79      
519.4375    -2.51       -68.58      -55.33      -17.7       
519.49375   -2.52       -66.75      -66.0       -17.75      
519.55      -2.48       -60.98      -57.9       -17.72      
519.60625   -2.47       -65.35      -56.14      -17.79      
519.6625    -2.5        -64.09      -61.49      -17.88      
519.71875   -2.47       -54.42      -62.56      -17.82      
519.775     -2.48       -59.99      -58.17      -17.72      
519.83125   -2.47       -58.64      -63.17      -17.85      
519.8875    -2.46       -52.28      -59.81      -17.72      
519.94375   -2.46       -60.68      -69.39      -17.74      
520.0       -2.46       -56.55      -52.3       -17.75      
