TESTE DA PLACA: RFFE

Operador: Fernando
Numero de Serie: 11111111
RFFE Software Version: V2_0002
RFFE - IP: 10.0.18.9
RFFE - Communication: OK
Start Time: 23-02-2017 20:52:50
End Time: 23-02-2017 20:52:50
Duracao do Teste: 6.609 min

Set-up Info:
Network Analyzer Model: E5062A
Network Analyzer - IP: 10.0.18.20
Network Analyzer - Communication: OK
Waveform Generator Model: 33500B
Waveform Generator - IP: 10.0.18.13
Waveform Generator - Communication: OK
RF Switch Model: RC-2SP4T-A18
RF Switch1 - IP: 10.0.18.12
RF Switch1 - Communication: OK
RF Switch2 - IP: 10.0.18.15
RF Switch2 - Communication: OK
DC Power Supply Model: 6626A

RESULTS:

RFFE Ch: 1-2

Freq [MHz]  S11 [dB]    S12 [dB]    S21 [dB]    S22 [dB]    
430.0       -2.58       -61.05      -58.58      -17.57      
430.05625   -2.56       -64.07      -59.3       -17.61      
430.1125    -2.51       -60.99      -55.16      -17.48      
430.16875   -2.53       -54.49      -71.81      -17.52      
430.225     -2.53       -59.29      -56.96      -17.5       
430.28125   -2.54       -63.64      -53.14      -17.56      
430.3375    -2.53       -63.32      -59.33      -17.47      
430.39375   -2.54       -52.21      -65.99      -17.59      
430.45      -2.5        -57.72      -57.14      -17.57      
430.50625   -2.54       -55.5       -57.33      -17.48      
430.5625    -2.5        -60.25      -69.31      -17.52      
430.61875   -2.55       -62.88      -62.1       -17.46      
430.675     -2.53       -61.21      -60.42      -17.48      
430.73125   -2.58       -66.41      -56.87      -17.59      
430.7875    -2.53       -57.5       -59.91      -17.51      
430.84375   -2.51       -56.37      -55.38      -17.58      
430.9       -2.5        -66.05      -68.56      -17.6       
430.95625   -2.56       -56.18      -60.79      -17.58      
431.0125    -2.54       -66.97      -71.07      -17.47      
431.06875   -2.56       -53.78      -62.29      -17.62      
431.125     -2.51       -66.48      -58.05      -17.53      
431.18125   -2.53       -61.59      -56.47      -17.57      
431.2375    -2.55       -64.9       -60.93      -17.48      
431.29375   -2.55       -55.86      -63.19      -17.6       
431.35      -2.47       -56.65      -53.32      -17.46      
431.40625   -2.53       -52.95      -59.55      -17.55      
431.4625    -2.5        -60.51      -64.04      -17.46      
431.51875   -2.53       -58.5       -65.37      -17.45      
431.575     -2.55       -56.38      -53.02      -17.39      
431.63125   -2.58       -56.47      -60.91      -17.49      
431.6875    -2.56       -53.5       -57.16      -17.46      
431.74375   -2.58       -63.0       -58.91      -17.57      
431.8       -2.59       -63.21      -75.5       -17.48      
431.85625   -2.6        -52.4       -56.88      -17.51      
431.9125    -2.55       -59.35      -57.17      -17.53      
431.96875   -2.67       -58.69      -58.28      -17.55      
432.025     -2.61       -61.83      -59.46      -17.49      
432.08125   -2.6        -52.86      -57.01      -17.67      
432.1375    -2.59       -61.4       -68.39      -17.62      
432.19375   -2.63       -63.87      -62.57      -17.53      
432.25      -2.63       -71.22      -65.57      -17.52      
432.30625   -2.63       -72.19      -57.77      -17.33      
432.3625    -2.64       -51.63      -56.75      -17.58      
432.41875   -2.67       -54.84      -57.47      -17.54      
432.475     -2.65       -55.14      -57.07      -17.52      
432.53125   -2.67       -59.45      -59.75      -17.37      
432.5875    -2.64       -60.94      -61.22      -17.47      
432.64375   -2.65       -59.54      -69.82      -17.44      
432.7       -2.64       -54.99      -56.32      -17.46      
432.75625   -2.66       -61.87      -59.48      -17.5       
432.8125    -2.66       -54.4       -75.17      -17.42      
432.86875   -2.72       -56.02      -56.03      -17.43      
432.925     -2.61       -68.8       -59.22      -17.48      
432.98125   -2.68       -57.41      -56.06      -17.53      
433.0375    -2.65       -60.97      -56.35      -17.54      
433.09375   -2.66       -64.68      -67.14      -17.44      
433.15      -2.7        -55.14      -57.45      -17.34      
433.20625   -2.68       -54.36      -61.09      -17.39      
433.2625    -2.65       -60.0       -59.63      -17.52      
433.31875   -2.65       -57.56      -62.84      -17.46      
433.375     -2.64       -52.57      -51.93      -17.5       
433.43125   -2.65       -62.16      -59.92      -17.42      
433.4875    -2.68       -65.62      -65.81      -17.29      
433.54375   -2.66       -59.28      -69.41      -17.47      
433.6       -2.65       -57.18      -53.67      -17.45      
433.65625   -2.72       -59.41      -64.05      -17.37      
433.7125    -2.66       -62.12      -62.45      -17.48      
433.76875   -2.64       -70.61      -60.0       -17.45      
433.825     -2.64       -51.67      -57.48      -17.56      
433.88125   -2.63       -54.7       -56.31      -17.42      
433.9375    -2.63       -64.06      -54.75      -17.55      
433.99375   -2.61       -53.95      -54.81      -17.53      
434.05      -2.64       -61.21      -60.63      -17.49      
434.10625   -2.67       -74.34      -56.34      -17.39      
434.1625    -2.68       -63.49      -56.72      -17.56      
434.21875   -2.7        -57.35      -62.0       -17.36      
434.275     -2.64       -61.26      -66.91      -17.49      
434.33125   -2.73       -59.36      -58.21      -17.37      
434.3875    -2.68       -57.04      -58.36      -17.52      
434.44375   -2.7        -56.46      -57.32      -17.38      
434.5       -2.7        -63.54      -53.23      -17.54      
434.55625   -2.71       -53.98      -62.03      -17.4       
434.6125    -2.73       -59.07      -55.04      -17.54      
434.66875   -2.69       -64.26      -68.8       -17.5       
434.725     -2.7        -59.45      -58.19      -17.47      
434.78125   -2.7        -59.83      -51.97      -17.45      
434.8375    -2.68       -60.2       -54.41      -17.41      
434.89375   -2.71       -60.19      -58.0       -17.47      
434.95      -2.65       -56.14      -58.1       -17.51      
435.00625   -2.68       -61.24      -70.66      -17.48      
435.0625    -2.67       -65.31      -59.53      -17.38      
435.11875   -2.69       -69.04      -59.94      -17.34      
435.175     -2.64       -57.89      -61.63      -17.43      
435.23125   -2.65       -63.84      -53.71      -17.4       
435.2875    -2.7        -52.57      -55.78      -17.46      
435.34375   -2.69       -53.31      -63.58      -17.34      
435.4       -2.64       -55.09      -59.29      -17.43      
435.45625   -2.67       -64.72      -57.26      -17.54      
435.5125    -2.62       -70.67      -59.85      -17.49      
435.56875   -2.65       -62.28      -56.84      -17.36      
435.625     -2.61       -62.13      -66.92      -17.43      
435.68125   -2.58       -55.69      -60.77      -17.37      
435.7375    -2.62       -70.41      -60.42      -17.4       
435.79375   -2.67       -54.17      -54.94      -17.33      
435.85      -2.65       -67.1       -53.65      -17.51      
435.90625   -2.63       -56.29      -59.26      -17.37      
435.9625    -2.64       -59.07      -71.18      -17.44      
436.01875   -2.62       -67.85      -59.47      -17.33      
436.075     -2.64       -54.01      -68.59      -17.59      
436.13125   -2.65       -63.69      -72.9       -17.32      
436.1875    -2.64       -56.38      -58.71      -17.52      
436.24375   -2.65       -62.17      -57.71      -17.37      
436.3       -2.69       -58.83      -56.82      -17.66      
436.35625   -2.65       -59.1       -65.9       -17.41      
436.4125    -2.65       -55.72      -56.92      -17.46      
436.46875   -2.72       -57.69      -52.11      -17.43      
436.525     -2.69       -57.07      -72.63      -17.48      
436.58125   -2.69       -60.22      -59.08      -17.41      
436.6375    -2.7        -53.3       -56.64      -17.27      
436.69375   -2.72       -61.31      -53.81      -17.38      
436.75      -2.71       -59.95      -60.87      -17.41      
436.80625   -2.72       -66.67      -57.35      -17.4       
436.8625    -2.73       -56.65      -85.57      -17.53      
436.91875   -2.76       -54.93      -59.3       -17.33      
436.975     -2.8        -56.89      -64.39      -17.38      
437.03125   -2.85       -57.51      -64.66      -17.38      
437.0875    -2.87       -58.58      -73.99      -17.58      
437.14375   -2.87       -58.47      -59.27      -17.36      
437.2       -2.87       -63.95      -51.06      -17.46      
437.25625   -2.88       -69.4       -66.85      -17.39      
437.3125    -2.96       -60.77      -55.55      -17.41      
437.36875   -2.94       -65.37      -72.17      -17.34      
437.425     -2.99       -60.66      -57.85      -17.56      
437.48125   -2.98       -60.53      -59.21      -17.39      
437.5375    -2.95       -57.01      -60.59      -17.46      
437.59375   -2.88       -54.55      -55.03      -17.33      
437.65      -2.96       -63.33      -63.71      -17.5       
437.70625   -2.9        -66.05      -55.02      -17.45      
437.7625    -2.89       -53.94      -62.07      -17.42      
437.81875   -2.85       -68.5       -50.88      -17.31      
437.875     -2.88       -56.61      -54.95      -17.51      
437.93125   -2.85       -56.23      -50.78      -17.32      
437.9875    -2.82       -61.91      -60.52      -17.4       
438.04375   -2.83       -56.97      -68.19      -17.29      
438.1       -2.83       -57.07      -60.25      -17.42      
438.15625   -2.82       -57.82      -65.21      -17.25      
438.2125    -2.8        -57.1       -60.3       -17.57      
438.26875   -2.76       -54.62      -65.95      -17.39      
438.325     -2.74       -57.32      -60.08      -17.46      
438.38125   -2.68       -52.67      -65.53      -17.45      
438.4375    -2.7        -53.57      -58.38      -17.5       
438.49375   -2.65       -53.94      -58.81      -17.3       
438.55      -2.62       -62.19      -60.73      -17.51      
438.60625   -2.68       -74.58      -58.83      -17.37      
438.6625    -2.68       -50.44      -59.07      -17.48      
438.71875   -2.68       -55.52      -54.06      -17.37      
438.775     -2.66       -58.38      -57.94      -17.44      
438.83125   -2.7        -56.35      -58.04      -17.42      
438.8875    -2.62       -54.46      -61.38      -17.45      
438.94375   -2.65       -60.68      -58.27      -17.36      
439.0       -2.64       -56.32      -54.99      -17.36      
439.05625   -2.65       -59.84      -58.46      -17.3       
439.1125    -2.65       -55.45      -63.9       -17.51      
439.16875   -2.65       -61.9       -56.15      -17.33      
439.225     -2.65       -63.78      -58.76      -17.41      
439.28125   -2.66       -57.28      -55.31      -17.38      
439.3375    -2.71       -59.42      -59.68      -17.37      
439.39375   -2.65       -55.86      -55.48      -17.22      
439.45      -2.69       -70.02      -62.08      -17.49      
439.50625   -2.66       -61.34      -55.48      -17.36      
439.5625    -2.67       -54.19      -63.76      -17.37      
439.61875   -2.66       -59.71      -57.4       -17.4       
439.675     -2.66       -60.81      -65.18      -17.45      
439.73125   -2.71       -64.85      -60.92      -17.31      
439.7875    -2.68       -55.78      -72.32      -17.39      
439.84375   -2.77       -60.34      -59.61      -17.21      
439.9       -2.74       -64.16      -63.33      -17.54      
439.95625   -2.81       -53.61      -60.8       -17.26      
440.0125    -2.79       -53.27      -56.19      -17.42      
440.06875   -2.81       -55.16      -57.18      -17.19      
440.125     -2.78       -66.03      -63.13      -17.45      
440.18125   -2.82       -68.29      -54.14      -17.25      
440.2375    -2.88       -71.18      -60.12      -17.43      
440.29375   -2.9        -60.84      -71.04      -17.36      
440.35      -2.89       -53.2       -60.44      -17.41      
440.40625   -2.9        -67.26      -61.63      -17.19      
440.4625    -2.92       -58.44      -57.12      -17.45      
440.51875   -2.95       -60.04      -63.93      -17.31      
440.575     -2.96       -52.52      -54.89      -17.42      
440.63125   -2.92       -57.51      -60.01      -17.32      
440.6875    -2.91       -62.96      -63.33      -17.39      
440.74375   -2.94       -59.94      -54.85      -17.23      
440.8       -3.01       -64.63      -56.02      -17.49      
440.85625   -2.99       -58.33      -58.13      -17.3       
440.9125    -2.96       -62.79      -53.5       -17.32      
440.96875   -2.97       -72.03      -54.3       -17.42      
441.025     -2.96       -56.6       -60.58      -17.48      
441.08125   -2.89       -57.24      -61.34      -17.24      
441.1375    -2.92       -68.36      -65.03      -17.5       
441.19375   -2.88       -62.21      -56.11      -17.41      
441.25      -2.85       -54.81      -57.92      -17.49      
441.30625   -2.86       -57.15      -53.43      -17.39      
441.3625    -2.84       -69.54      -54.86      -17.46      
441.41875   -2.82       -63.18      -54.98      -17.37      
441.475     -2.81       -69.6       -66.08      -17.51      
441.53125   -2.8        -56.27      -50.4       -17.25      
441.5875    -2.82       -63.3       -56.57      -17.45      
441.64375   -2.78       -58.97      -61.53      -17.28      
441.7       -2.73       -60.28      -56.15      -17.39      
441.75625   -2.76       -80.73      -59.81      -17.27      
441.8125    -2.71       -58.15      -59.93      -17.38      
441.86875   -2.72       -55.34      -55.25      -17.29      
441.925     -2.72       -56.77      -60.31      -17.35      
441.98125   -2.71       -64.5       -59.83      -17.3       
442.0375    -2.75       -55.74      -59.91      -17.42      
442.09375   -2.7        -87.72      -59.12      -17.22      
442.15      -2.71       -56.64      -62.21      -17.46      
442.20625   -2.65       -65.44      -69.28      -17.31      
442.2625    -2.66       -58.16      -68.64      -17.4       
442.31875   -2.64       -64.35      -53.18      -17.23      
442.375     -2.69       -58.55      -59.75      -17.47      
442.43125   -2.67       -62.31      -57.68      -17.22      
442.4875    -2.66       -56.32      -58.09      -17.36      
442.54375   -2.63       -58.46      -57.19      -17.23      
442.6       -2.65       -58.11      -53.31      -17.4       
442.65625   -2.64       -54.13      -52.79      -17.28      
442.7125    -2.66       -53.17      -75.03      -17.37      
442.76875   -2.65       -61.34      -62.2       -17.25      
442.825     -2.64       -51.53      -54.74      -17.39      
442.88125   -2.64       -61.18      -65.49      -17.2       
442.9375    -2.63       -56.24      -55.59      -17.52      
442.99375   -2.64       -63.88      -68.64      -17.33      
443.05      -2.59       -59.28      -53.59      -17.38      
443.10625   -2.64       -61.88      -57.6       -17.44      
443.1625    -2.6        -61.14      -61.78      -17.5       
443.21875   -2.65       -56.21      -57.84      -17.3       
443.275     -2.61       -54.36      -56.04      -17.39      
443.33125   -2.59       -61.77      -55.6       -17.31      
443.3875    -2.6        -73.15      -72.39      -17.36      
443.44375   -2.63       -55.38      -56.54      -17.37      
443.5       -2.61       -63.3       -57.66      -17.36      
443.55625   -2.6        -58.28      -58.17      -17.37      
443.6125    -2.62       -71.15      -54.32      -17.36      
443.66875   -2.63       -59.47      -57.18      -17.05      
443.725     -2.61       -57.33      -58.31      -17.28      
443.78125   -2.64       -56.77      -69.27      -17.25      
443.8375    -2.64       -61.47      -65.62      -17.36      
443.89375   -2.6        -61.52      -68.35      -17.19      
443.95      -2.59       -57.44      -62.84      -17.33      
444.00625   -2.63       -64.62      -62.26      -17.25      
444.0625    -2.64       -57.18      -68.24      -17.3       
444.11875   -2.63       -52.58      -57.55      -17.37      
444.175     -2.65       -63.62      -67.57      -17.52      
444.23125   -2.64       -66.4       -58.93      -17.34      
444.2875    -2.65       -59.58      -56.97      -17.32      
444.34375   -2.65       -55.44      -59.08      -17.15      
444.4       -2.73       -58.92      -58.24      -17.47      
444.45625   -2.73       -66.99      -61.44      -17.35      
444.5125    -2.73       -55.89      -58.63      -17.35      
444.56875   -2.7        -58.66      -61.19      -17.35      
444.625     -2.69       -62.07      -67.01      -17.35      
444.68125   -2.68       -60.14      -63.31      -17.25      
444.7375    -2.68       -60.39      -60.39      -17.4       
444.79375   -2.67       -58.62      -66.84      -17.33      
444.85      -2.67       -56.29      -66.9       -17.5       
444.90625   -2.67       -52.57      -73.22      -17.36      
444.9625    -2.7        -52.68      -57.05      -17.31      
445.01875   -2.63       -59.86      -50.05      -17.29      
445.075     -2.63       -61.91      -58.58      -17.3       
445.13125   -2.63       -56.57      -60.72      -17.29      
445.1875    -2.59       -57.92      -57.6       -17.32      
445.24375   -2.6        -61.13      -57.81      -17.32      
445.3       -2.56       -59.95      -56.74      -17.23      
445.35625   -2.58       -57.12      -63.11      -17.34      
445.4125    -2.57       -63.7       -58.04      -17.28      
445.46875   -2.48       -55.79      -58.26      -17.34      
445.525     -2.53       -59.77      -59.99      -17.33      
445.58125   -2.46       -63.51      -54.99      -17.17      
445.6375    -2.51       -62.82      -54.56      -17.25      
445.69375   -2.51       -57.21      -65.4       -17.3       
445.75      -2.47       -54.95      -61.7       -17.28      
445.80625   -2.5        -67.28      -55.88      -17.17      
445.8625    -2.45       -56.02      -57.67      -17.34      
445.91875   -2.49       -59.05      -51.51      -17.28      
445.975     -2.4        -56.01      -58.02      -17.36      
446.03125   -2.46       -53.37      -58.3       -17.3       
446.0875    -2.48       -59.21      -54.32      -17.23      
446.14375   -2.46       -60.09      -69.99      -17.25      
446.2       -2.48       -65.37      -67.93      -17.38      
446.25625   -2.48       -56.15      -60.87      -17.33      
446.3125    -2.48       -65.54      -62.92      -17.3       
446.36875   -2.49       -61.57      -56.42      -17.28      
446.425     -2.43       -53.66      -67.26      -17.22      
446.48125   -2.45       -60.12      -55.75      -17.23      
446.5375    -2.46       -60.8       -60.79      -17.32      
446.59375   -2.47       -62.94      -63.6       -17.38      
446.65      -2.47       -56.61      -55.12      -17.34      
446.70625   -2.44       -56.66      -61.74      -17.3       
446.7625    -2.46       -65.93      -62.49      -17.31      
446.81875   -2.46       -54.47      -56.97      -17.25      
446.875     -2.38       -58.44      -52.14      -17.3       
446.93125   -2.47       -54.88      -62.91      -17.29      
446.9875    -2.44       -63.0       -66.84      -17.3       
447.04375   -2.47       -56.74      -55.79      -17.31      
447.1       -2.44       -58.07      -64.52      -17.43      
447.15625   -2.48       -63.61      -53.29      -17.25      
447.2125    -2.44       -57.32      -63.31      -17.27      
447.26875   -2.49       -65.57      -64.38      -17.28      
447.325     -2.49       -52.99      -56.28      -17.26      
447.38125   -2.45       -59.33      -62.03      -17.36      
447.4375    -2.43       -61.3       -62.3       -17.26      
447.49375   -2.49       -63.04      -60.64      -17.29      
447.55      -2.46       -52.92      -54.02      -17.22      
447.60625   -2.43       -60.15      -54.05      -17.33      
447.6625    -2.45       -60.46      -57.57      -17.2       
447.71875   -2.48       -63.98      -73.89      -17.18      
447.775     -2.47       -56.5       -64.1       -17.34      
447.83125   -2.46       -52.96      -65.17      -17.42      
447.8875    -2.44       -58.23      -56.01      -17.25      
447.94375   -2.45       -80.89      -51.96      -17.22      
448.0       -2.46       -62.22      -55.83      -17.28      
448.05625   -2.49       -58.21      -59.02      -17.16      
448.1125    -2.45       -55.26      -55.26      -17.13      
448.16875   -2.45       -59.32      -56.84      -17.34      
448.225     -2.39       -61.25      -57.02      -17.16      
448.28125   -2.46       -54.35      -54.63      -17.25      
448.3375    -2.41       -64.0       -58.19      -17.15      
448.39375   -2.41       -63.8       -62.96      -17.42      
448.45      -2.42       -58.4       -53.64      -17.2       
448.50625   -2.42       -52.53      -62.23      -17.33      
448.5625    -2.43       -54.29      -60.25      -17.2       
448.61875   -2.41       -60.69      -50.08      -17.34      
448.675     -2.39       -71.73      -69.19      -17.2       
448.73125   -2.43       -62.34      -55.6       -17.34      
448.7875    -2.37       -54.24      -73.92      -17.22      
448.84375   -2.39       -55.41      -56.24      -17.27      
448.9       -2.43       -56.85      -57.0       -17.32      
448.95625   -2.4        -54.84      -54.11      -17.34      
449.0125    -2.38       -63.47      -63.14      -17.24      
449.06875   -2.42       -58.03      -62.35      -17.3       
449.125     -2.39       -54.67      -56.37      -17.19      
449.18125   -2.41       -58.35      -71.55      -17.3       
449.2375    -2.41       -55.76      -54.91      -17.27      
449.29375   -2.41       -56.14      -60.35      -17.3       
449.35      -2.35       -68.84      -63.25      -17.17      
449.40625   -2.41       -56.2       -57.89      -17.37      
449.4625    -2.39       -58.99      -51.64      -17.2       
449.51875   -2.38       -54.33      -58.91      -17.28      
449.575     -2.38       -57.57      -51.69      -17.15      
449.63125   -2.37       -65.24      -55.17      -17.24      
449.6875    -2.37       -55.61      -64.83      -17.19      
449.74375   -2.4        -58.22      -65.23      -17.25      
449.8       -2.39       -62.6       -54.39      -17.09      
449.85625   -2.41       -61.62      -66.77      -17.3       
449.9125    -2.37       -57.86      -59.21      -17.24      
449.96875   -2.36       -69.21      -55.39      -17.27      
450.025     -2.38       -64.8       -57.07      -17.21      
450.08125   -2.39       -60.85      -55.66      -17.37      
450.1375    -2.35       -58.71      -61.13      -17.2       
450.19375   -2.44       -58.18      -69.23      -17.41      
450.25      -2.35       -57.39      -56.55      -17.18      
450.30625   -2.39       -55.23      -64.96      -17.33      
450.3625    -2.41       -63.05      -57.18      -17.13      
450.41875   -2.42       -59.95      -63.63      -17.35      
450.475     -2.4        -54.89      -56.81      -17.29      
450.53125   -2.43       -62.3       -61.38      -17.33      
450.5875    -2.39       -68.7       -57.63      -17.19      
450.64375   -2.38       -65.39      -58.98      -17.3       
450.7       -2.34       -61.13      -57.93      -17.12      
450.75625   -2.41       -67.74      -54.94      -17.41      
450.8125    -2.38       -59.34      -66.49      -17.19      
450.86875   -2.42       -65.6       -62.71      -17.36      
450.925     -2.38       -63.15      -61.26      -17.33      
450.98125   -2.42       -59.86      -68.74      -17.29      
451.0375    -2.4        -60.86      -58.94      -17.26      
451.09375   -2.4        -52.48      -63.84      -17.27      
451.15      -2.37       -58.27      -60.72      -17.09      
451.20625   -2.44       -71.41      -58.62      -17.34      
451.2625    -2.4        -65.08      -51.89      -17.22      
451.31875   -2.39       -55.99      -60.93      -17.35      
451.375     -2.37       -59.14      -51.58      -17.15      
451.43125   -2.42       -56.4       -55.79      -17.34      
451.4875    -2.37       -57.25      -56.63      -17.15      
451.54375   -2.4        -57.52      -56.97      -17.3       
451.6       -2.38       -56.51      -62.73      -17.23      
451.65625   -2.4        -68.31      -73.09      -17.38      
451.7125    -2.38       -57.97      -60.8       -17.12      
451.76875   -2.43       -65.36      -65.04      -17.35      
451.825     -2.38       -56.42      -61.38      -17.13      
451.88125   -2.42       -56.49      -55.63      -17.18      
451.9375    -2.41       -54.31      -62.57      -17.16      
451.99375   -2.4        -58.57      -59.13      -17.33      
452.05      -2.42       -72.94      -64.99      -17.22      
452.10625   -2.43       -58.26      -67.7       -17.34      
452.1625    -2.4        -57.31      -58.59      -17.18      
452.21875   -2.4        -59.99      -64.13      -17.33      
452.275     -2.43       -52.76      -54.86      -17.13      
452.33125   -2.42       -62.29      -53.17      -17.3       
452.3875    -2.38       -65.79      -59.24      -17.09      
452.44375   -2.45       -54.46      -66.8       -17.15      
452.5       -2.42       -83.19      -67.71      -17.14      
452.55625   -2.44       -63.26      -59.27      -17.33      
452.6125    -2.47       -55.79      -56.49      -17.15      
452.66875   -2.42       -69.27      -64.25      -17.35      
452.725     -2.44       -57.86      -55.73      -17.13      
452.78125   -2.46       -58.53      -61.81      -17.2       
452.8375    -2.37       -71.57      -54.47      -17.18      
452.89375   -2.45       -54.66      -55.32      -17.22      
452.95      -2.41       -74.87      -56.87      -17.18      
453.00625   -2.41       -55.19      -59.5       -17.32      
453.0625    -2.42       -55.48      -56.68      -17.06      
453.11875   -2.42       -58.26      -61.43      -17.33      
453.175     -2.4        -61.1       -61.31      -17.11      
453.23125   -2.45       -64.51      -62.99      -17.3       
453.2875    -2.43       -55.68      -54.95      -17.1       
453.34375   -2.47       -68.26      -66.55      -17.37      
453.4       -2.42       -66.53      -56.51      -17.2       
453.45625   -2.46       -56.49      -65.65      -17.37      
453.5125    -2.45       -61.32      -56.9       -17.15      
453.56875   -2.46       -59.16      -65.79      -17.19      
453.625     -2.41       -51.85      -53.39      -17.03      
453.68125   -2.46       -58.59      -60.5       -17.24      
453.7375    -2.46       -59.09      -67.39      -17.19      
453.79375   -2.48       -64.05      -63.88      -17.26      
453.85      -2.44       -56.7       -62.7       -17.19      
453.90625   -2.48       -75.74      -58.76      -17.26      
453.9625    -2.41       -63.93      -55.08      -17.03      
454.01875   -2.48       -56.07      -56.41      -17.33      
454.075     -2.46       -52.97      -52.97      -17.05      
454.13125   -2.49       -76.65      -57.57      -17.29      
454.1875    -2.47       -66.37      -63.5       -17.06      
454.24375   -2.51       -64.37      -66.48      -17.21      
454.3       -2.48       -58.45      -59.94      -17.07      
454.35625   -2.56       -62.76      -58.12      -17.16      
454.4125    -2.51       -55.75      -54.84      -17.1       
454.46875   -2.55       -58.36      -50.68      -17.22      
454.525     -2.55       -55.04      -62.07      -17.07      
454.58125   -2.57       -58.21      -60.38      -17.3       
454.6375    -2.52       -57.56      -63.89      -17.13      
454.69375   -2.65       -55.56      -76.85      -17.21      
454.75      -2.58       -67.05      -63.81      -17.1       
454.80625   -2.68       -60.36      -64.58      -17.28      
454.8625    -2.64       -55.64      -64.41      -17.1       
454.91875   -2.65       -61.67      -65.27      -17.24      
454.975     -2.67       -61.62      -59.47      -17.09      
455.03125   -2.75       -56.46      -60.21      -17.17      
455.0875    -2.7        -66.6       -57.38      -17.21      
455.14375   -2.77       -58.52      -58.88      -17.31      
455.2       -2.77       -69.29      -61.14      -17.07      
455.25625   -2.78       -53.78      -71.45      -17.35      
455.3125    -2.68       -59.82      -58.97      -16.99      
455.36875   -2.69       -58.61      -54.34      -17.15      
455.425     -2.61       -71.08      -77.42      -17.08      
455.48125   -2.72       -57.57      -56.98      -17.2       
455.5375    -2.62       -62.41      -62.61      -17.11      
455.59375   -2.63       -68.77      -59.23      -17.21      
455.65      -2.55       -57.43      -57.98      -16.97      
455.70625   -2.61       -62.91      -68.15      -17.12      
455.7625    -2.58       -56.89      -64.12      -16.98      
455.81875   -2.6        -61.52      -67.74      -17.15      
455.875     -2.54       -61.34      -59.64      -17.06      
455.93125   -2.59       -70.82      -65.29      -17.24      
455.9875    -2.53       -63.93      -56.49      -17.22      
456.04375   -2.58       -65.38      -57.99      -17.26      
456.1       -2.54       -61.34      -57.74      -17.14      
456.15625   -2.6        -58.42      -60.27      -17.27      
456.2125    -2.57       -61.43      -56.62      -17.09      
456.26875   -2.55       -61.18      -71.92      -17.1       
456.325     -2.52       -54.11      -62.9       -17.08      
456.38125   -2.57       -67.05      -59.81      -17.33      
456.4375    -2.57       -60.36      -58.09      -17.09      
456.49375   -2.54       -57.94      -57.8       -17.2       
456.55      -2.5        -67.27      -66.31      -17.16      
456.60625   -2.58       -55.94      -57.72      -17.1       
456.6625    -2.54       -55.48      -59.64      -17.12      
456.71875   -2.58       -54.32      -54.56      -17.23      
456.775     -2.58       -71.06      -64.04      -17.03      
456.83125   -2.64       -68.56      -64.47      -17.3       
456.8875    -2.56       -56.99      -57.46      -17.06      
456.94375   -2.63       -59.22      -57.43      -17.23      
457.0       -2.62       -68.2       -58.4       -17.18      
457.05625   -2.65       -63.98      -56.68      -17.23      
457.1125    -2.59       -59.25      -56.8       -17.08      
457.16875   -2.63       -55.3       -58.43      -17.19      
457.225     -2.62       -57.13      -66.23      -17.12      
457.28125   -2.68       -63.55      -59.11      -17.11      
457.3375    -2.7        -59.84      -63.08      -17.07      
457.39375   -2.71       -63.35      -56.81      -17.16      
457.45      -2.75       -60.35      -55.42      -17.15      
457.50625   -2.82       -63.14      -65.16      -17.25      
457.5625    -2.79       -62.9       -63.95      -17.07      
457.61875   -2.91       -63.09      -59.48      -17.19      
457.675     -2.86       -57.46      -56.89      -17.12      
457.73125   -2.94       -59.99      -57.94      -17.24      
457.7875    -2.99       -67.95      -67.74      -16.97      
457.84375   -3.06       -63.95      -65.37      -17.23      
457.9       -3.08       -57.67      -53.49      -17.08      
457.95625   -3.16       -65.54      -55.6       -17.18      
458.0125    -3.14       -55.22      -57.76      -17.05      
458.06875   -3.28       -56.08      -58.67      -17.16      
458.125     -3.25       -54.3       -56.77      -17.05      
458.18125   -3.3        -58.64      -62.38      -17.16      
458.2375    -3.29       -58.26      -52.86      -16.99      
458.29375   -3.38       -56.51      -55.79      -17.18      
458.35      -3.3        -92.06      -55.22      -17.07      
458.40625   -3.37       -54.82      -57.22      -17.08      
458.4625    -3.26       -59.07      -62.39      -17.1       
458.51875   -3.27       -62.82      -56.21      -17.08      
458.575     -3.1        -70.5       -67.47      -17.07      
458.63125   -3.12       -54.21      -54.89      -17.11      
458.6875    -2.99       -79.52      -56.67      -17.03      
458.74375   -3.0        -59.59      -55.18      -17.16      
458.8       -2.95       -56.59      -63.42      -16.99      
458.85625   -2.93       -58.06      -55.86      -17.15      
458.9125    -2.87       -62.13      -62.71      -17.0       
458.96875   -2.84       -54.2       -58.96      -17.18      
459.025     -2.77       -54.56      -59.9       -17.08      
459.08125   -2.85       -69.05      -57.25      -17.16      
459.1375    -2.74       -55.73      -64.6       -17.14      
459.19375   -2.82       -61.67      -62.13      -17.07      
459.25      -2.75       -67.18      -60.04      -17.08      
459.30625   -2.77       -72.57      -57.2       -17.23      
459.3625    -2.73       -68.22      -57.91      -17.12      
459.41875   -2.75       -64.95      -55.95      -17.28      
459.475     -2.76       -52.82      -55.1       -17.06      
459.53125   -2.79       -52.37      -61.92      -17.11      
459.5875    -2.77       -66.14      -57.87      -17.09      
459.64375   -2.79       -62.44      -56.61      -17.14      
459.7       -2.82       -62.58      -56.4       -17.08      
459.75625   -2.78       -53.61      -55.47      -17.14      
459.8125    -2.79       -57.18      -60.99      -17.07      
459.86875   -2.84       -62.71      -60.64      -17.15      
459.925     -2.83       -62.39      -53.16      -17.09      
459.98125   -2.87       -59.06      -54.19      -17.18      
460.0375    -2.87       -60.53      -67.1       -17.08      
460.09375   -2.96       -56.8       -60.2       -17.21      
460.15      -2.96       -55.6       -60.56      -17.11      
460.20625   -3.09       -66.51      -72.88      -17.09      
460.2625    -3.13       -57.95      -57.65      -17.0       
460.31875   -3.26       -52.09      -59.48      -17.09      
460.375     -3.37       -60.73      -55.52      -16.96      
460.43125   -3.58       -60.44      -56.73      -17.13      
460.4875    -3.78       -55.45      -52.73      -17.03      
460.54375   -4.05       -62.28      -53.36      -17.13      
460.6       -4.23       -67.76      -58.2       -17.09      
460.65625   -4.57       -66.76      -54.23      -17.18      
460.7125    -4.74       -58.09      -63.79      -17.06      
460.76875   -4.99       -59.85      -56.68      -17.1       
460.825     -5.02       -59.86      -61.67      -17.0       
460.88125   -4.74       -57.18      -56.11      -17.18      
460.9375    -4.37       -61.02      -61.76      -17.08      
460.99375   -3.93       -53.3       -55.85      -17.13      
461.05      -3.52       -56.48      -68.35      -17.18      
461.10625   -3.34       -54.02      -64.28      -17.06      
461.1625    -3.16       -57.46      -56.12      -17.08      
461.21875   -3.08       -59.85      -53.42      -17.24      
461.275     -3.02       -61.09      -61.67      -17.3       
461.33125   -2.98       -65.08      -59.87      -17.14      
461.3875    -2.97       -62.93      -65.18      -17.02      
461.44375   -2.98       -54.53      -65.81      -17.04      
461.5       -2.93       -58.84      -59.66      -17.1       
461.55625   -2.98       -58.29      -59.8       -17.12      
461.6125    -2.94       -73.73      -59.2       -17.04      
461.66875   -3.01       -60.7       -55.8       -17.11      
461.725     -3.0        -59.95      -62.99      -16.97      
461.78125   -3.06       -56.24      -61.27      -17.01      
461.8375    -3.14       -60.38      -50.74      -17.14      
461.89375   -3.15       -51.82      -57.91      -16.98      
461.95      -3.17       -56.1       -55.11      -17.14      
462.00625   -3.32       -64.76      -58.43      -17.09      
462.0625    -3.41       -63.85      -51.46      -17.09      
462.11875   -3.49       -59.23      -52.5       -17.05      
462.175     -3.7        -60.75      -49.34      -17.13      
462.23125   -3.9        -57.8       -49.19      -17.07      
462.2875    -4.19       -59.51      -44.35      -17.13      
462.34375   -4.49       -62.34      -44.54      -17.18      
462.4       -4.97       -60.88      -43.63      -17.1       
462.45625   -5.53       -59.03      -41.07      -17.13      
462.5125    -6.3        -61.36      -42.41      -17.0       
462.56875   -7.17       -54.4       -38.37      -16.94      
462.625     -8.44       -59.68      -40.07      -16.97      
462.68125   -9.92       -54.09      -38.49      -17.02      
462.7375    -11.95      -59.91      -39.48      -17.08      
462.79375   -14.34      -59.48      -37.72      -17.02      
462.85      -17.38      -64.14      -38.25      -16.99      
462.90625   -20.27      -58.55      -39.62      -17.11      
462.9625    -21.85      -56.62      -39.29      -16.93      
463.01875   -20.39      -58.46      -39.61      -16.93      
463.075     -18.58      -59.53      -39.24      -17.0       
463.13125   -16.94      -56.64      -41.16      -17.07      
463.1875    -15.88      -55.32      -40.07      -17.07      
463.24375   -15.06      -55.42      -42.38      -17.03      
463.3       -14.74      -62.29      -41.96      -17.02      
463.35625   -14.28      -56.43      -43.06      -17.06      
463.4125    -14.26      -54.09      -41.21      -16.91      
463.46875   -14.25      -60.96      -43.38      -16.91      
463.525     -14.32      -67.72      -39.89      -16.93      
463.58125   -14.46      -60.69      -43.78      -17.0       
463.6375    -14.82      -60.29      -41.73      -17.08      
463.69375   -15.07      -55.17      -41.42      -17.07      
463.75      -15.64      -53.31      -40.72      -17.04      
463.80625   -16.07      -70.06      -40.28      -17.04      
463.8625    -16.68      -56.82      -39.68      -17.03      
463.91875   -17.2       -57.39      -39.6       -17.07      
463.975     -17.85      -56.34      -38.02      -17.15      
464.03125   -18.33      -58.26      -38.76      -17.11      
464.0875    -18.89      -61.68      -37.97      -16.99      
464.14375   -19.14      -56.69      -37.95      -17.04      
464.2       -19.48      -56.4       -37.87      -17.08      
464.25625   -19.85      -57.01      -38.64      -17.04      
464.3125    -20.02      -55.98      -37.45      -16.96      
464.36875   -19.69      -59.61      -37.14      -17.0       
464.425     -19.65      -54.7       -35.87      -17.04      
464.48125   -19.09      -62.1       -36.77      -17.04      
464.5375    -18.69      -57.17      -37.32      -16.94      
464.59375   -18.12      -56.73      -36.09      -17.04      
464.65      -17.43      -57.71      -36.77      -17.06      
464.70625   -16.93      -58.12      -35.99      -16.93      
464.7625    -16.47      -53.13      -37.54      -17.03      
464.81875   -16.07      -64.28      -35.95      -17.05      
464.875     -15.59      -60.76      -36.15      -16.98      
464.93125   -15.14      -57.57      -36.02      -16.92      
464.9875    -14.68      -60.97      -36.73      -16.99      
465.04375   -14.4       -63.24      -36.62      -17.14      
465.1       -14.19      -55.73      -36.6       -17.09      
465.15625   -13.89      -59.99      -36.22      -17.04      
465.2125    -13.72      -54.0       -36.48      -17.01      
465.26875   -13.48      -57.66      -36.19      -17.05      
465.325     -13.19      -54.04      -37.27      -17.06      
465.38125   -13.09      -57.31      -36.11      -16.95      
465.4375    -12.99      -60.52      -37.28      -17.04      
465.49375   -12.8       -60.79      -36.13      -16.97      
465.55      -12.65      -65.99      -36.4       -17.08      
465.60625   -12.69      -61.09      -36.94      -17.05      
465.6625    -12.45      -60.03      -36.98      -17.15      
465.71875   -12.41      -64.73      -36.26      -17.15      
465.775     -12.37      -58.47      -37.4       -17.05      
465.83125   -12.3       -67.06      -36.76      -16.9       
465.8875    -12.26      -58.29      -38.03      -17.03      
465.94375   -12.22      -63.74      -37.37      -17.15      
466.0       -12.21      -58.3       -37.76      -17.03      
466.05625   -12.1       -55.38      -36.66      -17.02      
466.1125    -12.14      -54.15      -37.89      -17.05      
466.16875   -12.14      -61.42      -36.9       -16.96      
466.225     -12.22      -53.08      -37.08      -17.03      
466.28125   -12.17      -54.18      -37.37      -17.06      
466.3375    -12.26      -62.09      -38.14      -16.97      
466.39375   -12.23      -57.97      -37.12      -17.01      
466.45      -12.23      -63.36      -37.74      -17.09      
466.50625   -12.3       -63.5       -37.64      -16.95      
466.5625    -12.46      -65.96      -38.97      -17.12      
466.61875   -12.4       -56.4       -37.37      -16.97      
466.675     -12.56      -57.59      -38.34      -17.08      
466.73125   -12.57      -53.71      -38.38      -17.11      
466.7875    -12.63      -64.98      -37.72      -17.1       
466.84375   -12.71      -60.61      -38.1       -17.01      
466.9       -12.86      -52.23      -37.94      -17.06      
466.95625   -12.82      -55.52      -37.72      -16.92      
467.0125    -13.04      -61.63      -37.31      -17.05      
467.06875   -13.13      -59.34      -37.48      -16.98      
467.125     -13.22      -55.62      -37.83      -17.07      
467.18125   -13.28      -52.09      -37.8       -17.03      
467.2375    -13.47      -53.81      -37.19      -17.02      
467.29375   -13.47      -57.84      -37.71      -17.17      
467.35      -13.6       -60.91      -36.73      -17.18      
467.40625   -13.65      -73.26      -37.26      -17.0       
467.4625    -13.76      -57.74      -36.9       -16.97      
467.51875   -13.75      -79.63      -37.24      -16.96      
467.575     -13.95      -60.18      -37.51      -17.03      
467.63125   -14.01      -56.42      -37.82      -17.16      
467.6875    -14.0       -53.07      -36.75      -16.98      
467.74375   -14.15      -58.46      -37.46      -16.97      
467.8       -14.18      -60.2       -37.27      -17.03      
467.85625   -14.24      -56.26      -38.18      -17.08      
467.9125    -14.41      -59.87      -36.75      -17.06      
467.96875   -14.37      -68.34      -37.83      -16.92      
468.025     -14.65      -57.54      -36.5       -17.08      
468.08125   -14.5       -63.14      -37.5       -16.9       
468.1375    -14.65      -59.01      -37.34      -16.96      
468.19375   -14.57      -58.55      -37.83      -16.95      
468.25      -14.76      -61.57      -36.58      -17.05      
468.30625   -14.81      -59.14      -36.78      -16.93      
468.3625    -14.77      -62.25      -37.13      -17.1       
468.41875   -14.72      -59.39      -36.82      -17.06      
468.475     -14.92      -57.4       -36.31      -17.09      
468.53125   -14.92      -62.23      -37.06      -17.05      
468.5875    -14.91      -61.32      -36.08      -17.06      
468.64375   -14.93      -64.85      -37.0       -17.03      
468.7       -15.01      -61.5       -35.99      -17.03      
468.75625   -14.96      -57.13      -36.87      -17.0       
468.8125    -14.96      -53.74      -35.78      -17.01      
468.86875   -14.98      -58.88      -36.97      -16.97      
468.925     -15.0       -62.03      -35.58      -17.02      
468.98125   -14.96      -53.68      -37.18      -16.97      
469.0375    -15.08      -57.33      -35.9       -17.06      
469.09375   -14.98      -52.86      -36.93      -16.93      
469.15      -15.0       -57.02      -36.1       -17.03      
469.20625   -15.05      -63.09      -36.87      -16.97      
469.2625    -14.98      -60.83      -35.49      -17.2       
469.31875   -14.92      -55.04      -36.48      -16.98      
469.375     -14.88      -65.39      -35.61      -16.96      
469.43125   -14.99      -55.08      -36.83      -17.0       
469.4875    -14.92      -68.5       -35.09      -17.0       
469.54375   -14.98      -65.18      -35.34      -16.92      
469.6       -15.08      -71.44      -36.0       -17.12      
469.65625   -14.95      -60.99      -37.01      -16.93      
469.7125    -14.94      -58.53      -35.55      -17.1       
469.76875   -14.88      -55.4       -36.95      -17.03      
469.825     -14.95      -55.14      -35.17      -17.01      
469.88125   -14.95      -76.32      -36.85      -16.84      
469.9375    -14.92      -59.61      -35.89      -16.9       
469.99375   -14.94      -59.61      -37.66      -16.97      
470.05      -14.96      -56.03      -34.92      -16.92      
470.10625   -14.96      -68.64      -36.66      -16.93      
470.1625    -15.15      -63.59      -35.32      -17.02      
470.21875   -15.11      -71.88      -37.22      -16.89      
470.275     -15.22      -58.79      -35.48      -17.07      
470.33125   -15.26      -64.92      -36.66      -16.99      
470.3875    -15.31      -63.81      -35.56      -16.98      
470.44375   -15.3       -60.58      -35.86      -16.98      
470.5       -15.43      -53.49      -36.02      -16.98      
470.55625   -15.26      -63.23      -35.58      -16.9       
470.6125    -15.5       -73.65      -35.16      -16.97      
470.66875   -15.53      -59.03      -37.28      -16.95      
470.725     -15.49      -69.72      -35.19      -17.08      
470.78125   -15.56      -57.47      -36.39      -17.05      
470.8375    -15.66      -55.74      -35.99      -17.05      
470.89375   -15.66      -69.72      -36.45      -16.87      
470.95      -15.9       -58.16      -35.18      -17.12      
471.00625   -15.78      -59.12      -36.17      -16.91      
471.0625    -15.9       -63.66      -35.6       -17.08      
471.11875   -16.03      -62.52      -36.04      -16.94      
471.175     -16.09      -55.96      -35.81      -17.11      
471.23125   -16.09      -59.29      -36.09      -16.97      
471.2875    -16.21      -57.39      -34.97      -17.14      
471.34375   -16.23      -63.13      -35.82      -17.09      
471.4       -16.4       -56.67      -35.2       -17.1       
471.45625   -16.24      -72.92      -35.91      -16.94      
471.5125    -16.35      -52.86      -34.81      -17.05      
471.56875   -16.37      -53.01      -35.52      -16.94      
471.625     -16.51      -65.84      -35.07      -17.15      
471.68125   -16.37      -55.45      -35.38      -16.94      
471.7375    -16.57      -52.61      -35.17      -17.07      
471.79375   -16.46      -64.69      -34.99      -16.86      
471.85      -16.55      -58.71      -34.71      -17.05      
471.90625   -16.56      -58.58      -35.39      -16.94      
471.9625    -16.69      -70.7       -35.33      -17.05      
472.01875   -16.6       -59.44      -35.3       -17.03      
472.075     -16.74      -57.66      -34.73      -17.15      
472.13125   -16.67      -63.7       -35.28      -17.03      
472.1875    -16.76      -60.93      -34.69      -16.98      
472.24375   -16.62      -55.4       -35.07      -16.97      
472.3       -16.66      -59.6       -34.6       -16.96      
472.35625   -16.6       -55.36      -34.86      -16.92      
472.4125    -16.65      -68.79      -34.4       -17.04      
472.46875   -16.64      -56.6       -34.46      -16.87      
472.525     -16.73      -63.7       -34.66      -16.97      
472.58125   -16.63      -58.32      -34.6       -16.86      
472.6375    -16.72      -60.89      -34.52      -17.01      
472.69375   -16.49      -59.78      -34.3       -16.96      
472.75      -16.46      -68.01      -34.4       -17.13      
472.80625   -16.33      -68.19      -34.63      -16.99      
472.8625    -16.37      -59.36      -34.19      -16.95      
472.91875   -16.07      -54.12      -34.0       -16.88      
472.975     -16.1       -59.91      -33.49      -17.01      
473.03125   -15.88      -56.61      -33.94      -16.96      
473.0875    -15.76      -56.91      -34.11      -16.87      
473.14375   -15.65      -62.24      -33.96      -16.9       
473.2       -15.64      -72.23      -33.66      -16.99      
473.25625   -15.39      -57.05      -33.33      -16.97      
473.3125    -15.3       -61.54      -33.62      -17.11      
473.36875   -15.22      -53.86      -33.5       -16.95      
473.425     -15.19      -58.94      -33.09      -17.08      
473.48125   -14.99      -55.71      -33.11      -16.87      
473.5375    -15.0       -67.57      -33.49      -17.12      
473.59375   -14.78      -65.5       -33.15      -16.99      
473.65      -14.7       -58.32      -33.61      -17.0       
473.70625   -14.59      -57.3       -33.04      -16.93      
473.7625    -14.42      -54.21      -33.73      -16.98      
473.81875   -14.42      -63.31      -33.14      -16.87      
473.875     -14.23      -65.02      -33.37      -17.01      
473.93125   -14.04      -59.04      -32.89      -16.99      
473.9875    -13.92      -58.33      -33.22      -16.98      
474.04375   -13.81      -62.23      -32.94      -16.76      
474.1       -13.62      -64.2       -33.11      -17.02      
474.15625   -13.46      -62.98      -32.81      -16.9       
474.2125    -13.46      -59.67      -33.32      -17.01      
474.26875   -13.18      -66.12      -32.43      -16.96      
474.325     -13.19      -66.8       -33.17      -17.06      
474.38125   -13.01      -54.89      -32.4       -16.94      
474.4375    -12.88      -55.8       -33.52      -17.06      
474.49375   -12.79      -61.42      -32.63      -16.9       
474.55      -12.63      -56.56      -32.74      -16.83      
474.60625   -12.47      -58.71      -32.72      -16.9       
474.6625    -12.42      -63.05      -33.02      -16.99      
474.71875   -12.29      -58.15      -32.59      -16.9       
474.775     -12.22      -55.92      -33.04      -17.08      
474.83125   -12.01      -62.59      -32.16      -16.96      
474.8875    -11.91      -60.43      -32.87      -16.97      
474.94375   -11.82      -72.86      -32.23      -17.09      
475.0       -11.74      -63.09      -33.27      -17.03      
475.05625   -11.58      -57.38      -32.49      -16.86      
475.1125    -11.53      -56.9       -32.82      -16.96      
475.16875   -11.43      -56.76      -32.46      -16.89      
475.225     -11.35      -55.61      -32.43      -16.89      
475.28125   -11.27      -55.8       -32.27      -17.02      
475.3375    -11.24      -60.2       -33.07      -17.02      
475.39375   -11.0       -57.97      -32.18      -16.89      
475.45      -11.1       -54.99      -33.15      -16.92      
475.50625   -10.88      -57.83      -32.06      -16.85      
475.5625    -10.91      -62.17      -32.77      -16.9       
475.61875   -10.76      -59.99      -32.57      -16.9       
475.675     -10.67      -56.61      -32.91      -16.88      
475.73125   -10.55      -61.36      -32.1       -16.92      
475.7875    -10.54      -56.55      -32.8       -16.97      
475.84375   -10.46      -65.05      -32.07      -16.95      
475.9       -10.33      -64.25      -32.41      -16.92      
475.95625   -10.24      -64.59      -31.69      -16.97      
476.0125    -10.18      -61.33      -32.79      -17.08      
476.06875   -10.07      -57.63      -32.25      -17.0       
476.125     -10.15      -70.54      -32.81      -16.99      
476.18125   -10.03      -64.76      -32.32      -16.89      
476.2375    -9.92       -60.79      -32.91      -16.95      
476.29375   -9.92       -55.91      -32.13      -16.91      
476.35      -9.91       -61.67      -32.66      -16.93      
476.40625   -9.8        -59.23      -32.66      -16.92      
476.4625    -9.84       -54.59      -32.39      -16.93      
476.51875   -9.8        -53.37      -32.85      -17.06      
476.575     -9.7        -56.14      -32.72      -17.05      
476.63125   -9.68       -74.79      -32.42      -16.88      
476.6875    -9.69       -53.05      -33.04      -16.91      
476.74375   -9.66       -69.08      -32.67      -16.92      
476.8       -9.63       -65.49      -33.01      -16.95      
476.85625   -9.5        -57.66      -32.91      -17.03      
476.9125    -9.57       -57.85      -32.68      -16.89      
476.96875   -9.4        -54.36      -32.38      -16.93      
477.025     -9.44       -54.48      -32.82      -16.9       
477.08125   -9.34       -60.62      -32.37      -16.97      
477.1375    -9.4        -55.2       -32.33      -16.96      
477.19375   -9.33       -56.99      -32.91      -17.01      
477.25      -9.34       -58.1       -32.86      -17.02      
477.30625   -9.33       -59.64      -32.7       -16.87      
477.3625    -9.33       -59.52      -33.26      -17.0       
477.41875   -9.25       -59.19      -32.82      -16.88      
477.475     -9.28       -54.03      -32.87      -16.96      
477.53125   -9.22       -61.74      -32.78      -16.9       
477.5875    -9.26       -56.29      -33.13      -16.97      
477.64375   -9.22       -69.62      -33.05      -16.93      
477.7       -9.31       -55.5       -33.14      -16.78      
477.75625   -9.22       -68.9       -33.33      -16.84      
477.8125    -9.22       -56.96      -32.99      -17.01      
477.86875   -9.24       -61.45      -32.93      -16.92      
477.925     -9.31       -61.46      -33.43      -16.97      
477.98125   -9.27       -61.06      -33.65      -16.99      
478.0375    -9.3        -60.32      -32.9       -16.93      
478.09375   -9.24       -58.02      -33.47      -16.88      
478.15      -9.34       -61.38      -33.23      -16.97      
478.20625   -9.38       -60.72      -33.47      -16.84      
478.2625    -9.37       -62.38      -33.55      -16.9       
478.31875   -9.31       -62.06      -33.17      -16.99      
478.375     -9.4        -57.12      -33.44      -16.91      
478.43125   -9.38       -71.0       -33.24      -16.83      
478.4875    -9.47       -55.77      -33.29      -16.86      
478.54375   -9.4        -62.18      -33.58      -16.91      
478.6       -9.52       -67.09      -33.22      -16.93      
478.65625   -9.46       -71.25      -33.76      -16.97      
478.7125    -9.56       -60.27      -33.44      -16.83      
478.76875   -9.52       -53.1       -33.58      -17.02      
478.825     -9.62       -56.5       -34.23      -16.85      
478.88125   -9.64       -60.66      -33.93      -16.98      
478.9375    -9.69       -58.42      -33.85      -16.9       
478.99375   -9.76       -57.12      -33.58      -16.85      
479.05      -9.74       -62.44      -33.47      -16.86      
479.10625   -9.81       -63.07      -34.45      -16.88      
479.1625    -9.86       -62.81      -33.69      -16.91      
479.21875   -9.88       -72.92      -34.17      -17.03      
479.275     -9.94       -61.19      -33.81      -16.84      
479.33125   -9.94       -58.55      -34.07      -17.0       
479.3875    -10.09      -68.13      -33.85      -16.91      
479.44375   -10.1       -55.54      -34.6       -16.97      
479.5       -10.2       -56.55      -33.86      -16.99      
479.55625   -10.19      -62.52      -34.5       -16.95      
479.6125    -10.26      -55.59      -34.21      -16.87      
479.66875   -10.3       -57.5       -34.18      -16.98      
479.725     -10.37      -56.36      -34.65      -16.92      
479.78125   -10.39      -56.54      -34.35      -16.89      
479.8375    -10.5       -53.47      -34.06      -17.01      
479.89375   -10.59      -58.02      -34.89      -16.98      
479.95      -10.7       -59.56      -34.34      -16.93      
480.00625   -10.71      -54.54      -34.68      -16.91      
480.0625    -10.75      -60.23      -34.69      -16.92      
480.11875   -10.89      -55.94      -34.91      -17.06      
480.175     -10.94      -57.73      -34.45      -16.96      
480.23125   -10.97      -64.97      -35.28      -17.05      
480.2875    -11.15      -61.39      -34.5       -16.86      
480.34375   -11.2       -59.67      -34.63      -17.03      
480.4       -11.33      -61.21      -34.16      -16.96      
480.45625   -11.37      -55.06      -35.67      -17.01      
480.5125    -11.51      -62.41      -34.83      -16.83      
480.56875   -11.54      -53.79      -35.42      -16.87      
480.625     -11.7       -66.5       -34.62      -16.88      
480.68125   -11.83      -58.21      -35.03      -17.01      
480.7375    -11.99      -57.52      -34.01      -16.81      
480.79375   -12.11      -55.8       -35.65      -16.93      
480.85      -12.21      -66.86      -34.7       -16.85      
480.90625   -12.32      -68.67      -35.4       -16.96      
480.9625    -12.52      -59.62      -35.34      -16.88      
481.01875   -12.71      -63.77      -35.45      -16.99      
481.075     -12.78      -52.92      -34.66      -16.93      
481.13125   -12.83      -59.24      -35.36      -16.97      
481.1875    -12.94      -57.75      -34.47      -16.85      
481.24375   -13.08      -62.54      -34.97      -16.94      
481.3       -13.2       -58.26      -34.7       -16.83      
481.35625   -13.24      -54.46      -35.55      -17.02      
481.4125    -13.48      -54.89      -34.65      -16.81      
481.46875   -13.57      -59.62      -35.26      -17.0       
481.525     -13.67      -58.15      -34.73      -16.77      
481.58125   -13.65      -58.42      -35.32      -16.95      
481.6375    -13.82      -61.49      -34.25      -16.8       
481.69375   -13.92      -78.69      -34.93      -16.96      
481.75      -14.09      -55.27      -34.58      -16.87      
481.80625   -14.08      -54.96      -35.05      -17.04      
481.8625    -14.19      -72.53      -34.45      -16.77      
481.91875   -14.16      -58.79      -34.46      -16.92      
481.975     -14.27      -59.36      -34.33      -16.82      
482.03125   -14.41      -58.82      -35.01      -16.99      
482.0875    -14.36      -68.25      -34.03      -16.94      
482.14375   -14.53      -62.81      -34.92      -16.96      
482.2       -14.6       -60.95      -33.88      -16.77      
482.25625   -14.6       -59.71      -34.91      -17.01      
482.3125    -14.76      -56.57      -34.31      -16.85      
482.36875   -14.74      -69.2       -34.54      -16.98      
482.425     -14.72      -61.04      -34.38      -16.84      
482.48125   -14.79      -74.95      -34.73      -17.0       
482.5375    -14.67      -55.57      -33.69      -16.91      
482.59375   -14.69      -57.12      -34.49      -17.03      
482.65      -14.75      -63.59      -33.72      -16.92      
482.70625   -14.71      -56.65      -34.55      -16.96      
482.7625    -14.8       -60.87      -33.57      -16.9       
482.81875   -14.82      -60.74      -34.36      -16.92      
482.875     -14.71      -63.41      -34.14      -16.87      
482.93125   -14.52      -62.65      -34.23      -17.02      
482.9875    -14.61      -69.99      -33.85      -16.91      
483.04375   -14.45      -55.89      -34.65      -16.95      
483.1       -14.56      -61.9       -33.35      -16.89      
483.15625   -14.42      -57.42      -34.1       -16.96      
483.2125    -14.35      -58.14      -33.83      -16.77      
483.26875   -14.25      -58.44      -34.19      -17.06      
483.325     -14.29      -59.96      -33.98      -16.78      
483.38125   -14.21      -63.39      -34.04      -17.05      
483.4375    -14.1       -62.91      -33.57      -16.95      
483.49375   -14.09      -53.09      -34.3       -17.07      
483.55      -14.09      -63.15      -33.4       -16.82      
483.60625   -13.96      -56.85      -34.09      -17.06      
483.6625    -13.88      -58.73      -33.7       -16.71      
483.71875   -13.86      -64.04      -33.92      -17.11      
483.775     -13.87      -57.34      -33.84      -16.86      
483.83125   -13.7       -60.61      -33.82      -16.91      
483.8875    -13.64      -54.93      -34.25      -16.85      
483.94375   -13.54      -54.55      -33.5       -17.04      
484.0       -13.5       -61.6       -33.05      -16.89      
484.05625   -13.41      -57.42      -33.68      -17.07      
484.1125    -13.37      -61.56      -33.65      -16.78      
484.16875   -13.33      -63.79      -33.64      -17.03      
484.225     -13.3       -67.86      -33.78      -16.85      
484.28125   -13.35      -66.83      -33.34      -17.11      
484.3375    -13.34      -61.31      -34.48      -16.85      
484.39375   -13.28      -55.42      -34.23      -17.04      
484.45      -13.21      -63.53      -33.69      -16.81      
484.50625   -13.2       -68.26      -33.8       -17.0       
484.5625    -13.14      -67.54      -34.14      -16.76      
484.61875   -13.14      -77.07      -34.5       -17.1       
484.675     -13.19      -66.54      -34.53      -16.83      
484.73125   -13.23      -60.51      -34.27      -17.09      
484.7875    -13.31      -64.54      -34.19      -16.83      
484.84375   -13.34      -55.4       -34.28      -16.92      
484.9       -13.45      -54.79      -34.74      -16.85      
484.95625   -13.62      -57.38      -34.43      -17.05      
485.0125    -13.78      -64.55      -34.57      -16.72      
485.06875   -13.78      -56.39      -34.61      -16.94      
485.125     -13.86      -57.76      -34.73      -16.88      
485.18125   -13.96      -54.24      -34.45      -17.02      
485.2375    -14.03      -62.34      -34.56      -16.85      
485.29375   -14.06      -65.67      -35.49      -16.9       
485.35      -14.09      -53.35      -34.89      -16.92      
485.40625   -14.23      -59.23      -34.52      -17.08      
485.4625    -14.37      -56.84      -35.64      -16.94      
485.51875   -14.52      -67.4       -35.61      -17.0       
485.575     -14.69      -55.18      -35.07      -16.89      
485.63125   -14.92      -64.53      -35.14      -16.95      
485.6875    -15.08      -51.48      -35.61      -16.79      
485.74375   -15.34      -80.55      -34.95      -17.08      
485.8       -15.5       -62.58      -36.16      -16.92      
485.85625   -15.86      -67.88      -35.03      -16.94      
485.9125    -16.01      -57.78      -35.96      -16.83      
485.96875   -16.39      -55.33      -35.44      -17.04      
486.025     -16.62      -67.09      -36.91      -16.89      
486.08125   -17.19      -53.9       -35.93      -17.05      
486.1375    -17.46      -58.77      -36.02      -16.78      
486.19375   -17.94      -62.77      -36.19      -16.96      
486.25      -18.27      -60.9       -36.23      -16.99      
486.30625   -18.81      -58.36      -35.94      -17.06      
486.3625    -19.48      -51.86      -37.1       -16.94      
486.41875   -20.34      -57.6       -36.14      -17.12      
486.475     -20.73      -58.34      -36.57      -16.92      
486.53125   -21.88      -58.48      -36.28      -16.99      
486.5875    -22.5       -61.27      -37.2       -16.86      
486.64375   -24.06      -64.02      -35.9       -17.02      
486.7       -25.28      -56.23      -36.92      -16.86      
486.75625   -26.94      -59.44      -36.64      -17.04      
486.8125    -28.76      -56.64      -38.07      -16.89      
486.86875   -30.7       -62.98      -36.27      -17.16      
486.925     -32.17      -59.46      -37.89      -16.89      
486.98125   -31.9       -55.2       -36.75      -17.0       
487.0375    -30.04      -68.58      -36.55      -16.85      
487.09375   -27.4       -64.21      -36.51      -16.94      
487.15      -26.31      -58.96      -37.46      -16.8       
487.20625   -24.08      -55.83      -35.92      -17.11      
487.2625    -22.85      -65.06      -36.88      -16.94      
487.31875   -21.3       -57.48      -35.65      -16.94      
487.375     -20.5       -56.56      -36.84      -16.83      
487.43125   -19.39      -57.14      -35.41      -17.08      
487.4875    -18.54      -57.7       -36.51      -16.96      
487.54375   -17.63      -52.72      -36.01      -16.99      
487.6       -16.9       -56.24      -35.84      -16.91      
487.65625   -15.95      -55.56      -35.17      -17.08      
487.7125    -15.26      -74.15      -35.81      -16.83      
487.76875   -14.47      -59.23      -34.83      -17.02      
487.825     -13.82      -55.96      -34.76      -16.85      
487.88125   -13.15      -66.42      -34.93      -17.05      
487.9375    -12.63      -58.99      -34.81      -17.01      
487.99375   -11.87      -64.23      -34.74      -16.93      
488.05      -11.48      -59.05      -35.23      -16.99      
488.10625   -10.98      -62.38      -34.61      -17.1       
488.1625    -10.6       -51.89      -34.82      -16.82      
488.21875   -10.23      -55.72      -34.2       -17.03      
488.275     -9.94       -63.46      -34.48      -16.71      
488.33125   -9.59       -60.31      -33.96      -17.1       
488.3875    -9.27       -64.03      -34.65      -16.77      
488.44375   -8.83       -61.06      -33.29      -17.01      
488.5       -8.57       -53.69      -34.52      -16.98      
488.55625   -8.2        -66.74      -34.33      -17.08      
488.6125    -7.93       -57.34      -34.05      -16.97      
488.66875   -7.61       -56.14      -33.76      -17.24      
488.725     -7.39       -64.21      -34.29      -16.92      
488.78125   -7.1        -56.77      -34.45      -16.97      
488.8375    -6.89       -62.11      -34.4       -17.03      
488.89375   -6.7        -67.79      -33.79      -17.14      
488.95      -6.51       -61.26      -34.2       -16.82      
489.00625   -6.3        -71.64      -34.21      -17.04      
489.0625    -6.13       -62.1       -34.77      -16.99      
489.11875   -5.92       -58.01      -34.57      -17.03      
489.175     -5.79       -63.13      -34.78      -16.78      
489.23125   -5.6        -52.76      -35.11      -16.95      
489.2875    -5.43       -65.01      -34.73      -16.85      
489.34375   -5.3        -55.53      -34.73      -17.01      
489.4       -5.14       -72.49      -35.24      -16.93      
489.45625   -5.01       -59.47      -35.14      -16.93      
489.5125    -4.88       -58.55      -35.23      -16.82      
489.56875   -4.74       -58.73      -35.32      -17.06      
489.625     -4.63       -60.09      -35.47      -17.1       
489.68125   -4.53       -70.23      -35.6       -17.07      
489.7375    -4.43       -57.91      -35.61      -17.0       
489.79375   -4.33       -63.72      -35.69      -17.03      
489.85      -4.27       -67.82      -35.64      -16.91      
489.90625   -4.16       -62.27      -35.96      -16.89      
489.9625    -4.12       -56.62      -36.45      -16.96      
490.01875   -4.06       -53.15      -36.53      -17.15      
490.075     -3.97       -56.41      -37.38      -16.89      
490.13125   -3.91       -57.87      -36.46      -16.96      
490.1875    -3.81       -54.69      -36.54      -16.94      
490.24375   -3.75       -64.36      -37.91      -17.03      
490.3       -3.71       -55.16      -37.36      -16.81      
490.35625   -3.65       -71.07      -38.03      -17.07      
490.4125    -3.56       -54.87      -37.29      -16.9       
490.46875   -3.54       -60.55      -38.41      -16.95      
490.525     -3.45       -68.14      -38.05      -16.96      
490.58125   -3.45       -54.69      -38.55      -16.98      
490.6375    -3.36       -55.96      -37.77      -16.89      
490.69375   -3.31       -55.44      -38.57      -17.06      
490.75      -3.22       -55.69      -39.47      -16.93      
490.80625   -3.25       -56.74      -39.17      -17.07      
490.8625    -3.17       -65.09      -39.25      -16.9       
490.91875   -3.17       -59.73      -41.18      -17.02      
490.975     -3.12       -60.92      -38.78      -16.92      
491.03125   -3.12       -69.96      -40.38      -16.99      
491.0875    -3.0        -59.78      -39.24      -16.98      
491.14375   -3.04       -59.81      -40.28      -17.0       
491.2       -3.0        -54.02      -39.21      -16.89      
491.25625   -2.99       -68.89      -40.57      -16.91      
491.3125    -2.95       -72.65      -40.52      -16.98      
491.36875   -2.96       -62.69      -41.33      -17.0       
491.425     -2.91       -72.08      -40.1       -17.04      
491.48125   -2.86       -64.82      -42.57      -16.91      
491.5375    -2.82       -57.62      -40.26      -17.01      
491.59375   -2.83       -58.4       -42.22      -16.97      
491.65      -2.76       -73.79      -40.51      -16.92      
491.70625   -2.78       -51.87      -41.92      -17.03      
491.7625    -2.73       -61.16      -41.1       -16.99      
491.81875   -2.74       -59.92      -45.03      -16.98      
491.875     -2.7        -60.7       -42.23      -16.9       
491.93125   -2.74       -54.5       -44.81      -17.03      
491.9875    -2.71       -60.11      -43.18      -16.91      
492.04375   -2.7        -55.9       -43.22      -17.05      
492.1       -2.69       -61.14      -42.03      -16.97      
492.15625   -2.68       -54.6       -45.81      -17.04      
492.2125    -2.65       -63.41      -43.29      -16.97      
492.26875   -2.68       -62.48      -44.35      -17.12      
492.325     -2.62       -60.06      -42.29      -17.06      
492.38125   -2.64       -65.88      -45.67      -16.93      
492.4375    -2.56       -53.85      -44.49      -16.97      
492.49375   -2.59       -57.91      -45.87      -17.02      
492.55      -2.56       -55.41      -43.98      -17.05      
492.60625   -2.56       -54.72      -45.94      -17.11      
492.6625    -2.5        -56.19      -43.0       -16.99      
492.71875   -2.54       -56.77      -47.69      -17.06      
492.775     -2.49       -56.59      -44.58      -16.97      
492.83125   -2.51       -55.53      -47.56      -16.98      
492.8875    -2.48       -54.11      -45.47      -17.14      
492.94375   -2.52       -55.87      -46.96      -17.04      
493.0       -2.45       -58.82      -45.24      -17.02      
493.05625   -2.47       -77.04      -47.35      -17.06      
493.1125    -2.46       -54.83      -46.19      -16.89      
493.16875   -2.47       -58.59      -46.63      -17.09      
493.225     -2.39       -54.64      -47.15      -17.06      
493.28125   -2.43       -59.71      -49.09      -16.93      
493.3375    -2.41       -75.76      -45.05      -16.95      
493.39375   -2.41       -58.86      -50.39      -16.94      
493.45      -2.36       -61.6       -48.09      -16.97      
493.50625   -2.42       -58.75      -48.44      -16.99      
493.5625    -2.33       -57.81      -46.33      -16.99      
493.61875   -2.38       -56.56      -49.88      -17.02      
493.675     -2.31       -60.51      -47.16      -17.06      
493.73125   -2.38       -62.87      -51.66      -17.13      
493.7875    -2.31       -55.67      -45.91      -17.02      
493.84375   -2.38       -56.0       -48.85      -17.05      
493.9       -2.32       -59.38      -49.08      -17.04      
493.95625   -2.39       -66.16      -49.6       -17.07      
494.0125    -2.34       -58.44      -46.25      -17.1       
494.06875   -2.36       -69.96      -50.69      -16.85      
494.125     -2.36       -50.87      -51.13      -16.95      
494.18125   -2.36       -63.86      -52.14      -16.98      
494.2375    -2.32       -69.95      -47.26      -16.93      
494.29375   -2.35       -53.98      -59.86      -16.99      
494.35      -2.32       -57.23      -48.83      -16.99      
494.40625   -2.34       -65.24      -53.21      -17.02      
494.4625    -2.3        -74.55      -48.09      -16.98      
494.51875   -2.33       -67.05      -48.27      -16.99      
494.575     -2.26       -55.15      -48.49      -17.12      
494.63125   -2.28       -59.84      -51.41      -17.09      
494.6875    -2.26       -54.78      -54.32      -17.02      
494.74375   -2.3        -56.34      -51.39      -16.94      
494.8       -2.27       -57.05      -50.25      -16.96      
494.85625   -2.3        -59.08      -51.83      -16.89      
494.9125    -2.25       -65.76      -51.46      -16.96      
494.96875   -2.32       -65.02      -51.53      -17.06      
495.025     -2.27       -55.61      -59.84      -16.99      
495.08125   -2.29       -60.35      -47.95      -17.02      
495.1375    -2.27       -64.16      -55.12      -17.01      
495.19375   -2.26       -56.36      -49.15      -16.9       
495.25      -2.25       -53.55      -54.77      -17.08      
495.30625   -2.24       -69.72      -53.46      -16.89      
495.3625    -2.26       -58.5       -59.52      -17.04      
495.41875   -2.23       -64.65      -51.48      -17.01      
495.475     -2.26       -60.53      -57.15      -16.98      
495.53125   -2.26       -61.0       -52.63      -16.98      
495.5875    -2.25       -57.46      -54.14      -17.09      
495.64375   -2.22       -61.17      -54.71      -16.93      
495.7       -2.24       -61.46      -59.61      -17.1       
495.75625   -2.26       -60.04      -54.35      -16.94      
495.8125    -2.24       -63.42      -55.76      -17.12      
495.86875   -2.21       -61.64      -52.35      -17.08      
495.925     -2.22       -54.42      -58.84      -17.04      
495.98125   -2.27       -74.65      -57.35      -17.04      
496.0375    -2.24       -55.87      -54.45      -17.09      
496.09375   -2.23       -57.67      -52.93      -17.05      
496.15      -2.24       -64.3       -68.58      -17.1       
496.20625   -2.26       -56.86      -48.9       -17.02      
496.2625    -2.22       -58.89      -61.13      -17.1       
496.31875   -2.25       -67.18      -57.63      -17.04      
496.375     -2.25       -52.95      -56.27      -17.22      
496.43125   -2.2        -55.12      -50.68      -17.12      
496.4875    -2.24       -53.56      -70.47      -17.06      
496.54375   -2.2        -73.66      -51.29      -16.98      
496.6       -2.2        -61.3       -61.91      -17.2       
496.65625   -2.23       -56.34      -51.39      -17.15      
496.7125    -2.22       -60.24      -67.05      -17.1       
496.76875   -2.24       -72.55      -52.92      -17.0       
496.825     -2.25       -54.1       -59.43      -17.23      
496.88125   -2.22       -60.93      -49.63      -16.98      
496.9375    -2.25       -55.17      -64.61      -17.12      
496.99375   -2.2        -62.3       -50.76      -17.07      
497.05      -2.21       -60.32      -58.37      -17.14      
497.10625   -2.24       -60.77      -53.27      -16.96      
497.1625    -2.22       -78.98      -62.33      -17.28      
497.21875   -2.26       -63.51      -56.49      -16.94      
497.275     -2.23       -53.88      -81.77      -17.18      
497.33125   -2.2        -72.15      -58.95      -17.06      
497.3875    -2.21       -55.94      -69.36      -17.11      
497.44375   -2.24       -76.36      -53.91      -17.06      
497.5       -2.23       -74.49      -62.64      -17.13      
497.55625   -2.24       -59.85      -53.61      -17.01      
497.6125    -2.23       -55.12      -62.85      -17.12      
497.66875   -2.18       -64.15      -56.48      -16.95      
497.725     -2.18       -55.08      -55.07      -17.1       
497.78125   -2.2        -62.19      -57.6       -17.13      
497.8375    -2.19       -59.25      -59.86      -17.18      
497.89375   -2.19       -55.88      -53.68      -16.96      
497.95      -2.17       -56.83      -62.89      -17.06      
498.00625   -2.18       -55.24      -59.03      -17.02      
498.0625    -2.18       -59.34      -56.85      -17.14      
498.11875   -2.19       -56.75      -49.88      -17.11      
498.175     -2.21       -64.07      -63.92      -17.14      
498.23125   -2.21       -64.5       -62.53      -17.07      
498.2875    -2.24       -60.8       -60.49      -17.11      
498.34375   -2.23       -69.4       -54.57      -17.05      
498.4       -2.18       -62.16      -60.32      -17.1       
498.45625   -2.19       -61.99      -53.41      -17.08      
498.5125    -2.17       -59.97      -67.88      -17.12      
498.56875   -2.23       -64.61      -51.99      -17.12      
498.625     -2.23       -57.07      -59.89      -17.24      
498.68125   -2.21       -61.86      -56.34      -17.17      
498.7375    -2.21       -68.57      -70.35      -17.07      
498.79375   -2.2        -64.2       -56.12      -17.1       
498.85      -2.21       -61.75      -75.76      -17.14      
498.90625   -2.18       -68.19      -50.73      -17.13      
498.9625    -2.15       -57.17      -53.03      -17.08      
499.01875   -2.19       -57.46      -81.55      -17.07      
499.075     -2.19       -61.88      -57.56      -17.23      
499.13125   -2.16       -54.63      -57.22      -17.11      
499.1875    -2.18       -59.53      -58.35      -17.09      
499.24375   -2.14       -51.69      -57.07      -17.11      
499.3       -2.21       -63.78      -62.08      -17.16      
499.35625   -2.2        -59.83      -49.64      -17.15      
499.4125    -2.17       -59.7       -63.14      -17.25      
499.46875   -2.19       -59.36      -53.18      -17.06      
499.525     -2.19       -56.17      -57.7       -17.14      
499.58125   -2.18       -58.07      -58.79      -17.02      
499.6375    -2.17       -67.94      -58.3       -17.2       
499.69375   -2.2        -71.51      -53.01      -16.95      
499.75      -2.15       -67.59      -55.3       -17.07      
499.80625   -2.15       -68.59      -48.68      -17.09      
499.8625    -2.18       -60.68      -60.07      -17.07      
499.91875   -2.14       -58.59      -50.1       -17.23      
499.975     -2.19       -59.08      -62.66      -17.06      
500.03125   -2.22       -68.03      -66.06      -17.1       
500.0875    -2.16       -55.21      -63.56      -17.16      
500.14375   -2.16       -57.23      -54.51      -17.05      
500.2       -2.14       -65.4       -60.54      -17.25      
500.25625   -2.15       -62.0       -52.44      -17.13      
500.3125    -2.17       -57.5       -55.31      -17.16      
500.36875   -2.16       -57.18      -57.41      -17.13      
500.425     -2.18       -52.12      -58.99      -17.06      
500.48125   -2.15       -60.91      -58.16      -17.16      
500.5375    -2.15       -55.82      -55.97      -17.11      
500.59375   -2.15       -56.62      -56.31      -17.18      
500.65      -2.16       -58.15      -64.33      -17.2       
500.70625   -2.16       -63.11      -54.79      -17.23      
500.7625    -2.18       -60.57      -57.43      -17.19      
500.81875   -2.15       -55.79      -59.52      -17.14      
500.875     -2.2        -54.97      -57.72      -17.23      
500.93125   -2.16       -65.05      -53.64      -17.2       
500.9875    -2.2        -51.05      -53.28      -17.07      
501.04375   -2.16       -57.09      -65.01      -17.19      
501.1       -2.18       -57.0       -71.92      -17.12      
501.15625   -2.2        -56.51      -59.84      -17.06      
501.2125    -2.18       -68.41      -58.24      -17.09      
501.26875   -2.15       -51.99      -54.89      -17.29      
501.325     -2.14       -57.35      -54.84      -17.06      
501.38125   -2.13       -60.07      -53.41      -17.25      
501.4375    -2.16       -58.97      -61.16      -17.08      
501.49375   -2.14       -64.24      -68.54      -17.14      
501.55      -2.13       -62.0       -58.83      -17.3       
501.60625   -2.15       -63.02      -60.74      -17.2       
501.6625    -2.18       -61.79      -63.14      -17.21      
501.71875   -2.19       -67.62      -59.12      -17.22      
501.775     -2.2        -56.42      -55.97      -17.14      
501.83125   -2.18       -59.07      -57.59      -17.06      
501.8875    -2.16       -63.09      -58.56      -17.2       
501.94375   -2.19       -67.41      -60.93      -17.26      
502.0       -2.17       -59.18      -61.95      -17.18      
502.05625   -2.18       -62.75      -57.93      -17.19      
502.1125    -2.16       -60.27      -62.23      -17.16      
502.16875   -2.17       -60.99      -62.94      -17.12      
502.225     -2.18       -59.54      -60.1       -17.19      
502.28125   -2.17       -53.39      -55.69      -17.24      
502.3375    -2.17       -60.04      -57.26      -17.11      
502.39375   -2.14       -61.34      -64.9       -17.11      
502.45      -2.19       -60.51      -76.67      -17.23      
502.50625   -2.2        -71.65      -52.61      -17.28      
502.5625    -2.17       -67.58      -64.36      -17.1       
502.61875   -2.2        -53.17      -55.94      -17.24      
502.675     -2.16       -54.51      -65.53      -17.12      
502.73125   -2.18       -56.37      -59.32      -17.2       
502.7875    -2.15       -58.93      -78.42      -17.2       
502.84375   -2.2        -57.74      -57.12      -17.32      
502.9       -2.17       -62.71      -56.09      -17.17      
502.95625   -2.19       -63.95      -52.36      -17.18      
503.0125    -2.18       -58.69      -69.71      -17.26      
503.06875   -2.18       -61.43      -66.8       -17.24      
503.125     -2.18       -58.25      -63.09      -17.1       
503.18125   -2.19       -57.66      -60.42      -17.13      
503.2375    -2.17       -54.21      -57.57      -17.22      
503.29375   -2.2        -53.56      -59.04      -17.3       
503.35      -2.18       -69.51      -56.72      -17.12      
503.40625   -2.21       -58.6       -63.4       -17.07      
503.4625    -2.2        -64.48      -61.5       -17.16      
503.51875   -2.17       -57.63      -62.91      -17.25      
503.575     -2.22       -67.66      -55.59      -17.11      
503.63125   -2.22       -62.42      -57.86      -17.34      
503.6875    -2.22       -62.39      -57.33      -17.29      
503.74375   -2.16       -65.62      -69.1       -17.35      
503.8       -2.2        -56.28      -54.79      -17.28      
503.85625   -2.23       -64.74      -67.65      -17.22      
503.9125    -2.17       -59.74      -61.09      -17.2       
503.96875   -2.19       -55.22      -57.31      -17.22      
504.025     -2.19       -55.07      -67.38      -17.24      
504.08125   -2.23       -60.55      -60.4       -17.17      
504.1375    -2.23       -56.96      -59.21      -17.21      
504.19375   -2.21       -56.87      -64.45      -17.31      
504.25      -2.21       -56.34      -53.66      -17.21      
504.30625   -2.18       -61.59      -56.71      -17.33      
504.3625    -2.2        -60.85      -62.39      -17.24      
504.41875   -2.18       -67.08      -67.6       -17.29      
504.475     -2.24       -65.08      -57.84      -17.29      
504.53125   -2.2        -62.78      -69.82      -17.18      
504.5875    -2.2        -71.31      -61.04      -17.2       
504.64375   -2.26       -61.56      -65.32      -17.3       
504.7       -2.27       -57.12      -65.37      -17.17      
504.75625   -2.25       -57.57      -66.63      -17.39      
504.8125    -2.26       -56.11      -63.86      -17.15      
504.86875   -2.21       -71.51      -78.23      -17.27      
504.925     -2.23       -65.02      -77.14      -17.15      
504.98125   -2.23       -56.37      -63.11      -17.31      
505.0375    -2.2        -58.31      -60.57      -17.28      
505.09375   -2.23       -57.78      -77.37      -17.25      
505.15      -2.24       -59.16      -58.11      -17.16      
505.20625   -2.26       -59.45      -70.8       -17.41      
505.2625    -2.26       -59.08      -58.7       -17.27      
505.31875   -2.25       -53.6       -56.3       -17.32      
505.375     -2.28       -57.14      -64.5       -17.22      
505.43125   -2.28       -59.6       -62.35      -17.27      
505.4875    -2.28       -57.92      -55.26      -17.35      
505.54375   -2.29       -56.59      -64.96      -17.38      
505.6       -2.28       -61.49      -63.87      -17.33      
505.65625   -2.3        -64.14      -59.38      -17.37      
505.7125    -2.28       -56.34      -58.32      -17.24      
505.76875   -2.27       -55.04      -56.21      -17.36      
505.825     -2.25       -51.1       -63.14      -17.32      
505.88125   -2.3        -65.24      -56.82      -17.37      
505.9375    -2.28       -60.21      -55.2       -17.12      
505.99375   -2.32       -64.44      -63.81      -17.36      
506.05      -2.3        -61.37      -58.88      -17.29      
506.10625   -2.3        -53.82      -64.09      -17.45      
506.1625    -2.3        -61.33      -56.62      -17.22      
506.21875   -2.3        -54.12      -62.52      -17.33      
506.275     -2.3        -58.45      -61.29      -17.17      
506.33125   -2.28       -57.58      -66.59      -17.3       
506.3875    -2.36       -57.44      -54.57      -17.39      
506.44375   -2.31       -53.0       -68.77      -17.23      
506.5       -2.27       -60.59      -69.38      -17.26      
506.55625   -2.29       -64.15      -56.2       -17.37      
506.6125    -2.4        -65.1       -58.32      -17.26      
506.66875   -2.34       -63.8       -69.91      -17.44      
506.725     -2.37       -56.45      -65.52      -17.17      
506.78125   -2.37       -65.59      -67.9       -17.35      
506.8375    -2.39       -68.89      -59.02      -17.22      
506.89375   -2.37       -60.27      -58.87      -17.49      
506.95      -2.37       -60.57      -54.72      -17.34      
507.00625   -2.38       -58.49      -62.71      -17.48      
507.0625    -2.36       -57.51      -63.47      -17.23      
507.11875   -2.33       -55.04      -58.56      -17.36      
507.175     -2.31       -61.17      -54.35      -17.27      
507.23125   -2.37       -55.75      -60.22      -17.36      
507.2875    -2.33       -57.52      -54.33      -17.22      
507.34375   -2.37       -81.17      -64.8       -17.26      
507.4       -2.37       -57.66      -57.09      -17.17      
507.45625   -2.39       -68.65      -59.0       -17.34      
507.5125    -2.35       -61.92      -54.96      -17.24      
507.56875   -2.42       -66.61      -61.56      -17.38      
507.625     -2.37       -56.06      -55.87      -17.33      
507.68125   -2.4        -67.02      -68.31      -17.43      
507.7375    -2.44       -59.54      -59.7       -17.22      
507.79375   -2.4        -69.77      -58.83      -17.34      
507.85      -2.43       -66.6       -65.13      -17.25      
507.90625   -2.4        -58.24      -60.79      -17.4       
507.9625    -2.44       -55.08      -56.07      -17.36      
508.01875   -2.45       -64.69      -60.32      -17.35      
508.075     -2.45       -62.35      -54.89      -17.29      
508.13125   -2.46       -53.81      -58.46      -17.43      
508.1875    -2.46       -61.44      -58.38      -17.22      
508.24375   -2.5        -77.19      -52.69      -17.51      
508.3       -2.42       -71.13      -53.31      -17.37      
508.35625   -2.44       -55.43      -60.47      -17.41      
508.4125    -2.46       -67.07      -55.44      -17.33      
508.46875   -2.43       -61.88      -59.02      -17.41      
508.525     -2.46       -60.19      -59.28      -17.27      
508.58125   -2.48       -55.87      -58.94      -17.49      
508.6375    -2.44       -63.72      -52.47      -17.37      
508.69375   -2.47       -62.33      -68.36      -17.4       
508.75      -2.47       -63.35      -54.26      -17.34      
508.80625   -2.51       -54.11      -56.15      -17.36      
508.8625    -2.53       -66.78      -51.9       -17.45      
508.91875   -2.48       -60.83      -53.62      -17.49      
508.975     -2.48       -63.17      -53.57      -17.45      
509.03125   -2.48       -64.72      -55.14      -17.42      
509.0875    -2.48       -54.84      -52.59      -17.24      
509.14375   -2.48       -66.58      -64.55      -17.51      
509.2       -2.42       -53.13      -54.97      -17.32      
509.25625   -2.5        -68.89      -66.48      -17.6       
509.3125    -2.49       -68.76      -51.86      -17.37      
509.36875   -2.53       -57.54      -61.74      -17.41      
509.425     -2.48       -53.67      -53.34      -17.37      
509.48125   -2.56       -60.3       -63.49      -17.5       
509.5375    -2.55       -55.81      -52.81      -17.31      
509.59375   -2.53       -57.06      -57.75      -17.41      
509.65      -2.48       -57.71      -58.06      -17.36      
509.70625   -2.53       -57.21      -73.36      -17.52      
509.7625    -2.51       -57.52      -55.52      -17.47      
509.81875   -2.53       -61.27      -62.43      -17.47      
509.875     -2.48       -57.75      -64.03      -17.43      
509.93125   -2.53       -59.1       -57.33      -17.41      
509.9875    -2.5        -55.34      -55.5       -17.38      
510.04375   -2.54       -58.48      -55.05      -17.45      
510.1       -2.48       -57.59      -53.6       -17.32      
510.15625   -2.58       -53.31      -64.36      -17.45      
510.2125    -2.53       -61.22      -56.64      -17.26      
510.26875   -2.62       -61.29      -55.31      -17.48      
510.325     -2.56       -55.89      -58.89      -17.31      
510.38125   -2.59       -68.73      -62.1       -17.47      
510.4375    -2.57       -78.43      -62.2       -17.29      
510.49375   -2.58       -67.01      -57.49      -17.47      
510.55      -2.54       -63.76      -61.51      -17.43      
510.60625   -2.57       -62.96      -59.1       -17.5       
510.6625    -2.56       -59.63      -54.76      -17.25      
510.71875   -2.56       -56.99      -64.43      -17.49      
510.775     -2.55       -58.19      -60.8       -17.36      
510.83125   -2.55       -56.01      -60.02      -17.53      
510.8875    -2.55       -61.96      -56.67      -17.27      
510.94375   -2.56       -65.83      -60.94      -17.52      
511.0       -2.53       -63.21      -62.09      -17.23      
511.05625   -2.57       -58.32      -54.76      -17.52      
511.1125    -2.54       -69.9       -58.61      -17.39      
511.16875   -2.56       -67.43      -53.45      -17.46      
511.225     -2.5        -59.84      -63.34      -17.31      
511.28125   -2.59       -65.85      -55.73      -17.59      
511.3375    -2.57       -53.77      -55.98      -17.26      
511.39375   -2.59       -54.42      -62.47      -17.44      
511.45      -2.56       -85.35      -53.75      -17.42      
511.50625   -2.59       -62.84      -65.71      -17.49      
511.5625    -2.58       -62.72      -68.36      -17.34      
511.61875   -2.66       -70.27      -64.08      -17.51      
511.675     -2.59       -70.06      -61.39      -17.39      
511.73125   -2.61       -63.26      -52.84      -17.66      
511.7875    -2.58       -73.44      -56.83      -17.38      
511.84375   -2.56       -64.49      -67.22      -17.27      
511.9       -2.54       -59.96      -54.51      -17.34      
511.95625   -2.57       -64.41      -57.38      -17.68      
512.0125    -2.53       -55.3       -60.56      -17.43      
512.06875   -2.54       -59.87      -60.22      -17.5       
512.125     -2.5        -59.62      -73.74      -17.41      
512.18125   -2.55       -63.59      -64.06      -17.51      
512.2375    -2.53       -55.13      -66.87      -17.45      
512.29375   -2.62       -76.39      -54.22      -17.51      
512.35      -2.58       -58.87      -56.41      -17.4       
512.40625   -2.61       -60.89      -73.84      -17.43      
512.4625    -2.6        -60.98      -57.36      -17.48      
512.51875   -2.62       -57.31      -64.21      -17.53      
512.575     -2.6        -68.58      -60.75      -17.49      
512.63125   -2.55       -56.95      -58.62      -17.51      
512.6875    -2.53       -54.02      -57.04      -17.54      
512.74375   -2.59       -59.37      -58.1       -17.53      
512.8       -2.54       -57.84      -65.1       -17.53      
512.85625   -2.59       -57.56      -74.36      -17.43      
512.9125    -2.56       -56.26      -65.64      -17.47      
512.96875   -2.61       -56.1       -64.22      -17.58      
513.025     -2.56       -58.93      -69.69      -17.53      
513.08125   -2.58       -70.79      -66.91      -17.52      
513.1375    -2.56       -56.76      -54.96      -17.48      
513.19375   -2.58       -61.21      -64.75      -17.7       
513.25      -2.5        -58.34      -58.75      -17.45      
513.30625   -2.58       -63.99      -60.7       -17.44      
513.3625    -2.53       -53.03      -58.92      -17.43      
513.41875   -2.58       -51.56      -55.49      -17.51      
513.475     -2.54       -67.64      -56.59      -17.45      
513.53125   -2.57       -53.85      -58.92      -17.6       
513.5875    -2.55       -57.08      -64.23      -17.38      
513.64375   -2.58       -56.29      -65.21      -17.51      
513.7       -2.53       -58.18      -68.95      -17.39      
513.75625   -2.61       -54.85      -56.49      -17.68      
513.8125    -2.54       -70.17      -55.61      -17.49      
513.86875   -2.61       -54.84      -64.51      -17.6       
513.925     -2.58       -64.23      -57.67      -17.43      
513.98125   -2.65       -55.33      -65.19      -17.62      
514.0375    -2.61       -58.84      -59.26      -17.5       
514.09375   -2.6        -53.33      -55.51      -17.48      
514.15      -2.57       -51.81      -64.68      -17.53      
514.20625   -2.6        -56.66      -66.84      -17.55      
514.2625    -2.6        -66.79      -64.98      -17.54      
514.31875   -2.59       -71.52      -59.92      -17.58      
514.375     -2.51       -66.69      -77.51      -17.47      
514.43125   -2.55       -61.2       -55.63      -17.68      
514.4875    -2.54       -53.69      -55.86      -17.59      
514.54375   -2.52       -53.63      -54.98      -17.52      
514.6       -2.52       -63.42      -61.05      -17.36      
514.65625   -2.57       -69.8       -58.0       -17.64      
514.7125    -2.56       -59.28      -68.25      -17.51      
514.76875   -2.57       -58.59      -65.71      -17.61      
514.825     -2.51       -60.27      -57.46      -17.51      
514.88125   -2.56       -56.54      -54.33      -17.56      
514.9375    -2.5        -61.43      -63.05      -17.47      
514.99375   -2.6        -66.39      -58.66      -17.42      
515.05      -2.55       -62.08      -61.85      -17.59      
515.10625   -2.62       -63.5       -57.74      -17.65      
515.1625    -2.59       -66.89      -58.67      -17.44      
515.21875   -2.63       -60.66      -56.14      -17.64      
515.275     -2.57       -60.85      -67.48      -17.45      
515.33125   -2.59       -62.53      -54.7       -17.65      
515.3875    -2.54       -56.64      -58.6       -17.58      
515.44375   -2.58       -56.59      -54.21      -17.61      
515.5       -2.55       -58.42      -55.25      -17.57      
515.55625   -2.55       -61.97      -60.15      -17.59      
515.6125    -2.52       -69.76      -56.11      -17.52      
515.66875   -2.53       -66.75      -62.15      -17.6       
515.725     -2.49       -63.52      -59.07      -17.61      
515.78125   -2.49       -59.22      -52.72      -17.64      
515.8375    -2.52       -60.08      -57.63      -17.55      
515.89375   -2.57       -62.77      -54.84      -17.55      
515.95      -2.54       -57.41      -61.37      -17.58      
516.00625   -2.57       -57.62      -55.59      -17.57      
516.0625    -2.52       -60.61      -73.69      -17.53      
516.11875   -2.57       -61.27      -58.32      -17.59      
516.175     -2.55       -58.29      -61.45      -17.48      
516.23125   -2.62       -63.91      -57.9       -17.62      
516.2875    -2.57       -61.05      -61.59      -17.55      
516.34375   -2.6        -60.23      -57.96      -17.68      
516.4       -2.53       -52.93      -61.12      -17.68      
516.45625   -2.61       -54.0       -58.36      -17.59      
516.5125    -2.55       -57.66      -57.7       -17.53      
516.56875   -2.54       -66.99      -57.63      -17.58      
516.625     -2.51       -63.21      -53.92      -17.72      
516.68125   -2.57       -65.17      -59.5       -17.57      
516.7375    -2.51       -52.56      -61.25      -17.59      
516.79375   -2.58       -62.81      -62.4       -17.64      
516.85      -2.51       -60.6       -65.21      -17.75      
516.90625   -2.56       -59.74      -67.74      -17.63      
516.9625    -2.52       -65.77      -64.46      -17.55      
517.01875   -2.53       -59.59      -72.25      -17.58      
517.075     -2.51       -65.6       -59.13      -17.61      
517.13125   -2.54       -65.34      -60.49      -17.56      
517.1875    -2.48       -58.27      -65.62      -17.58      
517.24375   -2.54       -64.09      -69.9       -17.5       
517.3       -2.5        -55.22      -60.34      -17.61      
517.35625   -2.52       -60.09      -59.11      -17.57      
517.4125    -2.53       -51.16      -55.49      -17.73      
517.46875   -2.56       -61.7       -55.57      -17.61      
517.525     -2.55       -68.07      -59.27      -17.54      
517.58125   -2.57       -55.32      -59.01      -17.5       
517.6375    -2.53       -56.76      -59.7       -17.62      
517.69375   -2.58       -59.87      -85.79      -17.67      
517.75      -2.54       -66.56      -59.81      -17.66      
517.80625   -2.59       -59.45      -63.36      -17.59      
517.8625    -2.51       -55.59      -57.33      -17.69      
517.91875   -2.57       -64.57      -58.81      -17.59      
517.975     -2.55       -62.13      -65.49      -17.6       
518.03125   -2.58       -65.78      -62.08      -17.64      
518.0875    -2.54       -64.35      -57.79      -17.66      
518.14375   -2.54       -58.45      -59.82      -17.71      
518.2       -2.49       -69.89      -53.04      -17.72      
518.25625   -2.52       -60.96      -66.57      -17.61      
518.3125    -2.47       -61.2       -77.72      -17.78      
518.36875   -2.56       -56.68      -57.71      -17.61      
518.425     -2.5        -61.25      -55.49      -17.63      
518.48125   -2.53       -55.49      -59.36      -17.72      
518.5375    -2.5        -64.1       -57.31      -17.73      
518.59375   -2.49       -65.33      -58.62      -17.7       
518.65      -2.51       -52.03      -59.88      -17.71      
518.70625   -2.55       -71.13      -56.18      -17.78      
518.7625    -2.49       -52.84      -62.71      -17.67      
518.81875   -2.59       -61.99      -69.41      -17.61      
518.875     -2.54       -54.53      -65.1       -17.72      
518.93125   -2.6        -60.58      -64.45      -17.73      
518.9875    -2.54       -58.84      -72.15      -17.62      
519.04375   -2.57       -53.47      -58.06      -17.58      
519.1       -2.52       -56.87      -55.88      -17.8       
519.15625   -2.57       -56.52      -54.81      -17.77      
519.2125    -2.56       -56.75      -58.03      -17.61      
519.26875   -2.55       -62.07      -64.99      -17.68      
519.325     -2.52       -60.81      -52.47      -17.78      
519.38125   -2.55       -53.48      -64.45      -17.68      
519.4375    -2.51       -56.12      -57.79      -17.65      
519.49375   -2.55       -59.27      -58.84      -17.84      
519.55      -2.48       -56.06      -60.09      -17.78      
519.60625   -2.52       -56.5       -62.18      -17.64      
519.6625    -2.5        -55.5       -55.6       -17.79      
519.71875   -2.51       -55.67      -53.78      -17.66      
519.775     -2.47       -54.22      -58.31      -17.67      
519.83125   -2.5        -73.23      -56.19      -17.67      
519.8875    -2.5        -56.52      -63.77      -17.69      
519.94375   -2.5        -56.96      -65.06      -17.69      
520.0       -2.49       -60.87      -67.59      -17.66      
