TESTE DA PLACA: RFFE

Operador: Fernando
Numero de Serie: 11111111
RFFE Software Version: V2_0002
RFFE - IP: 10.0.18.9
RFFE - Communication: OK
Start Time: 23-02-2017 20:52:50
End Time: 23-02-2017 20:52:50
Duracao do Teste: 6.609 min

Set-up Info:
Network Analyzer Model: E5062A
Network Analyzer - IP: 10.0.18.20
Network Analyzer - Communication: OK
Waveform Generator Model: 33500B
Waveform Generator - IP: 10.0.18.13
Waveform Generator - Communication: OK
RF Switch Model: RC-2SP4T-A18
RF Switch1 - IP: 10.0.18.12
RF Switch1 - Communication: OK
RF Switch2 - IP: 10.0.18.15
RF Switch2 - Communication: OK
DC Power Supply Model: 6626A

RESULTS:

RFFE Ch: 3-4

Freq [MHz]  S11 [dB]    S12 [dB]    S21 [dB]    S22 [dB]    
430.0       -2.59       -53.08      -56.44      -17.13      
430.05625   -2.58       -55.34      -60.13      -17.26      
430.1125    -2.54       -68.88      -52.65      -17.0       
430.16875   -2.59       -63.62      -54.66      -17.09      
430.225     -2.58       -57.35      -60.5       -17.03      
430.28125   -2.62       -63.61      -62.47      -17.24      
430.3375    -2.56       -61.12      -55.7       -17.02      
430.39375   -2.58       -66.34      -56.73      -17.21      
430.45      -2.53       -64.88      -61.66      -16.92      
430.50625   -2.58       -56.26      -72.23      -17.2       
430.5625    -2.53       -56.31      -57.02      -16.98      
430.61875   -2.61       -60.42      -58.25      -17.01      
430.675     -2.55       -55.84      -51.76      -17.05      
430.73125   -2.58       -54.68      -59.16      -17.26      
430.7875    -2.55       -55.73      -63.68      -17.1       
430.84375   -2.55       -69.2       -58.27      -17.21      
430.9       -2.5        -54.94      -68.31      -16.92      
430.95625   -2.56       -54.82      -59.6       -17.15      
431.0125    -2.56       -61.88      -56.59      -17.03      
431.06875   -2.56       -58.5       -59.11      -17.17      
431.125     -2.54       -53.39      -60.43      -16.96      
431.18125   -2.52       -72.93      -58.01      -17.14      
431.2375    -2.53       -63.6       -62.34      -16.96      
431.29375   -2.52       -55.09      -54.83      -17.3       
431.35      -2.49       -58.66      -57.0       -16.92      
431.40625   -2.52       -64.0       -59.49      -17.14      
431.4625    -2.49       -59.48      -66.93      -17.02      
431.51875   -2.48       -53.55      -54.85      -16.98      
431.575     -2.49       -56.37      -59.63      -16.92      
431.63125   -2.55       -61.11      -56.17      -17.05      
431.6875    -2.54       -58.04      -55.98      -16.91      
431.74375   -2.51       -66.8       -60.64      -17.21      
431.8       -2.54       -60.6       -54.48      -16.99      
431.85625   -2.56       -56.38      -60.51      -17.15      
431.9125    -2.49       -77.59      -62.06      -16.95      
431.96875   -2.59       -66.03      -69.23      -17.23      
432.025     -2.59       -53.15      -62.23      -16.99      
432.08125   -2.55       -56.47      -54.04      -17.19      
432.1375    -2.56       -53.95      -54.53      -17.03      
432.19375   -2.62       -63.88      -55.5       -17.21      
432.25      -2.6        -62.1       -62.0       -16.84      
432.30625   -2.62       -60.0       -61.41      -16.95      
432.3625    -2.62       -62.61      -63.22      -17.1       
432.41875   -2.68       -62.74      -62.04      -17.06      
432.475     -2.62       -56.07      -53.31      -17.02      
432.53125   -2.69       -58.86      -58.98      -17.07      
432.5875    -2.64       -58.12      -64.31      -16.98      
432.64375   -2.69       -53.81      -58.03      -17.11      
432.7       -2.69       -58.94      -62.42      -16.93      
432.75625   -2.71       -67.8       -54.18      -17.18      
432.8125    -2.7        -64.09      -58.8       -16.87      
432.86875   -2.78       -62.42      -58.48      -17.06      
432.925     -2.7        -54.81      -66.87      -17.04      
432.98125   -2.78       -56.01      -57.34      -17.24      
433.0375    -2.74       -53.01      -60.71      -16.95      
433.09375   -2.75       -60.29      -60.21      -17.03      
433.15      -2.76       -63.1       -59.59      -17.01      
433.20625   -2.76       -56.95      -63.65      -17.02      
433.2625    -2.71       -52.35      -56.64      -17.08      
433.31875   -2.7        -55.24      -55.86      -16.99      
433.375     -2.71       -68.75      -58.17      -17.09      
433.43125   -2.7        -64.63      -55.38      -17.13      
433.4875    -2.69       -64.38      -68.38      -16.96      
433.54375   -2.66       -57.71      -56.69      -17.11      
433.6       -2.65       -77.85      -84.22      -17.09      
433.65625   -2.65       -61.92      -60.02      -17.09      
433.7125    -2.6        -58.79      -59.71      -16.88      
433.76875   -2.61       -56.47      -60.95      -17.03      
433.825     -2.65       -65.58      -62.47      -16.92      
433.88125   -2.63       -65.33      -58.2       -17.02      
433.9375    -2.61       -56.45      -59.3       -17.11      
433.99375   -2.59       -58.45      -58.35      -17.09      
434.05      -2.6        -85.7       -59.99      -16.94      
434.10625   -2.58       -66.57      -54.77      -17.13      
434.1625    -2.6        -57.2       -55.64      -16.96      
434.21875   -2.61       -57.53      -56.22      -17.07      
434.275     -2.55       -51.7       -52.52      -17.06      
434.33125   -2.64       -54.42      -68.06      -16.98      
434.3875    -2.59       -59.55      -59.73      -17.05      
434.44375   -2.61       -61.38      -65.44      -17.07      
434.5       -2.58       -67.51      -62.57      -17.01      
434.55625   -2.65       -56.54      -56.49      -17.02      
434.6125    -2.63       -56.98      -59.55      -16.97      
434.66875   -2.64       -62.52      -61.06      -17.11      
434.725     -2.63       -66.54      -61.63      -17.01      
434.78125   -2.66       -53.67      -55.84      -16.98      
434.8375    -2.65       -54.16      -64.48      -16.94      
434.89375   -2.66       -62.22      -56.44      -17.07      
434.95      -2.67       -55.58      -76.59      -16.98      
435.00625   -2.63       -68.64      -62.22      -17.06      
435.0625    -2.67       -55.27      -67.55      -16.94      
435.11875   -2.71       -55.46      -56.05      -16.99      
435.175     -2.64       -53.52      -56.6       -17.01      
435.23125   -2.68       -61.35      -58.83      -17.01      
435.2875    -2.69       -59.34      -54.73      -17.01      
435.34375   -2.74       -59.55      -58.38      -17.09      
435.4       -2.68       -52.08      -58.7       -17.01      
435.45625   -2.72       -57.88      -60.91      -17.11      
435.5125    -2.68       -59.06      -85.66      -16.95      
435.56875   -2.7        -49.66      -66.57      -17.13      
435.625     -2.67       -59.26      -54.0       -16.99      
435.68125   -2.68       -68.87      -58.91      -16.91      
435.7375    -2.71       -65.53      -70.26      -16.99      
435.79375   -2.76       -62.55      -59.47      -17.0       
435.85      -2.69       -59.22      -67.17      -16.87      
435.90625   -2.73       -71.6       -74.06      -16.97      
435.9625    -2.68       -60.81      -61.42      -16.95      
436.01875   -2.72       -54.7       -68.2       -16.98      
436.075     -2.64       -60.36      -52.27      -17.1       
436.13125   -2.69       -58.46      -53.92      -16.94      
436.1875    -2.65       -65.45      -74.23      -17.07      
436.24375   -2.67       -67.26      -51.95      -16.97      
436.3       -2.69       -55.51      -57.2       -17.06      
436.35625   -2.66       -58.56      -56.61      -17.0       
436.4125    -2.66       -52.88      -55.52      -16.98      
436.46875   -2.68       -65.05      -57.47      -17.07      
436.525     -2.65       -56.1       -67.79      -17.02      
436.58125   -2.68       -55.77      -58.38      -17.04      
436.6375    -2.63       -54.86      -55.01      -16.92      
436.69375   -2.7        -53.85      -55.81      -17.02      
436.75      -2.67       -55.79      -53.86      -17.02      
436.80625   -2.68       -62.42      -60.42      -17.07      
436.8625    -2.66       -58.19      -62.61      -16.92      
436.91875   -2.74       -55.66      -59.43      -17.04      
436.975     -2.71       -57.82      -62.1       -16.95      
437.03125   -2.75       -54.47      -58.7       -17.04      
437.0875    -2.7        -56.46      -60.23      -17.07      
437.14375   -2.74       -54.9       -54.81      -16.95      
437.2       -2.77       -57.24      -55.49      -17.01      
437.25625   -2.8        -66.69      -58.76      -17.01      
437.3125    -2.81       -61.33      -64.9       -16.99      
437.36875   -2.83       -61.94      -58.57      -17.08      
437.425     -2.86       -55.81      -65.82      -17.05      
437.48125   -2.88       -55.76      -60.87      -16.96      
437.5375    -2.88       -73.63      -59.99      -16.97      
437.59375   -2.91       -58.98      -62.33      -17.04      
437.65      -2.92       -66.01      -59.46      -17.12      
437.70625   -2.92       -59.81      -67.8       -17.15      
437.7625    -2.91       -57.43      -58.98      -16.97      
437.81875   -2.95       -58.15      -65.43      -16.9       
437.875     -2.93       -63.55      -62.18      -17.01      
437.93125   -2.91       -56.2       -58.16      -16.95      
437.9875    -2.87       -67.63      -68.38      -17.03      
438.04375   -2.91       -67.88      -54.37      -16.95      
438.1       -2.86       -57.93      -58.71      -16.96      
438.15625   -2.93       -67.03      -62.59      -16.86      
438.2125    -2.86       -62.69      -67.45      -17.07      
438.26875   -2.82       -55.01      -60.53      -17.03      
438.325     -2.81       -53.05      -62.99      -16.95      
438.38125   -2.77       -51.38      -56.71      -16.99      
438.4375    -2.72       -53.64      -61.29      -17.08      
438.49375   -2.7        -53.85      -60.3       -16.84      
438.55      -2.68       -59.57      -58.88      -17.19      
438.60625   -2.72       -51.22      -56.82      -17.02      
438.6625    -2.68       -59.55      -52.68      -16.92      
438.71875   -2.69       -51.5       -53.5       -16.86      
438.775     -2.6        -64.1       -54.72      -17.06      
438.83125   -2.68       -72.76      -67.75      -17.07      
438.8875    -2.58       -62.45      -56.93      -17.16      
438.94375   -2.64       -59.29      -71.41      -16.99      
439.0       -2.61       -72.33      -52.88      -17.04      
439.05625   -2.62       -67.15      -57.06      -16.94      
439.1125    -2.56       -58.95      -79.35      -17.13      
439.16875   -2.59       -64.32      -54.15      -16.96      
439.225     -2.57       -59.24      -59.27      -17.05      
439.28125   -2.63       -60.46      -67.35      -16.91      
439.3375    -2.59       -80.52      -63.65      -16.94      
439.39375   -2.59       -55.06      -67.63      -16.97      
439.45      -2.61       -53.28      -58.95      -17.1       
439.50625   -2.64       -59.2       -60.39      -16.94      
439.5625    -2.61       -60.83      -58.3       -16.95      
439.61875   -2.62       -60.39      -60.12      -16.96      
439.675     -2.6        -69.37      -55.58      -17.0       
439.73125   -2.64       -58.5       -61.85      -16.87      
439.7875    -2.64       -59.23      -59.8       -17.12      
439.84375   -2.7        -54.76      -54.88      -16.81      
439.9       -2.64       -52.17      -62.1       -17.09      
439.95625   -2.71       -52.19      -60.73      -16.88      
440.0125    -2.69       -74.62      -55.73      -16.81      
440.06875   -2.74       -51.98      -58.17      -16.83      
440.125     -2.73       -52.55      -57.25      -17.06      
440.18125   -2.8        -55.69      -67.7       -16.9       
440.2375    -2.83       -54.54      -59.47      -17.02      
440.29375   -2.89       -67.0       -60.74      -16.95      
440.35      -2.84       -66.79      -60.73      -16.97      
440.40625   -2.92       -67.77      -60.18      -16.92      
440.4625    -2.96       -63.84      -57.41      -17.08      
440.51875   -3.02       -61.36      -68.12      -16.93      
440.575     -3.04       -58.45      -62.51      -17.14      
440.63125   -3.03       -52.1       -58.6       -16.97      
440.6875    -3.04       -65.29      -60.2       -16.93      
440.74375   -3.08       -56.85      -72.44      -16.96      
440.8       -3.07       -58.49      -64.54      -17.09      
440.85625   -3.1        -50.95      -59.31      -16.95      
440.9125    -3.01       -61.24      -53.64      -17.01      
440.96875   -3.05       -54.95      -58.9       -16.86      
441.025     -2.99       -66.85      -61.83      -17.02      
441.08125   -2.96       -57.39      -56.23      -16.79      
441.1375    -2.92       -56.01      -71.75      -17.07      
441.19375   -2.9        -56.86      -56.35      -17.03      
441.25      -2.82       -53.3       -64.91      -17.11      
441.30625   -2.82       -55.78      -60.08      -16.89      
441.3625    -2.76       -62.7       -55.89      -17.04      
441.41875   -2.75       -62.42      -55.72      -16.96      
441.475     -2.71       -61.96      -71.38      -17.13      
441.53125   -2.68       -67.61      -63.75      -16.82      
441.5875    -2.67       -56.38      -54.2       -17.08      
441.64375   -2.62       -52.79      -57.1       -16.91      
441.7       -2.57       -59.39      -60.16      -17.06      
441.75625   -2.66       -56.3       -58.28      -16.79      
441.8125    -2.59       -71.66      -52.54      -17.03      
441.86875   -2.61       -51.54      -63.1       -16.89      
441.925     -2.55       -57.02      -56.12      -17.05      
441.98125   -2.6        -61.74      -65.09      -16.92      
442.0375    -2.6        -60.82      -55.95      -17.08      
442.09375   -2.62       -49.4       -54.5       -16.95      
442.15      -2.57       -62.69      -59.15      -17.15      
442.20625   -2.61       -55.95      -56.59      -16.85      
442.2625    -2.56       -60.71      -58.04      -17.0       
442.31875   -2.56       -73.97      -55.29      -16.85      
442.375     -2.56       -58.16      -56.51      -17.07      
442.43125   -2.62       -59.96      -55.88      -16.98      
442.4875    -2.57       -54.23      -53.77      -16.94      
442.54375   -2.59       -60.66      -60.53      -16.87      
442.6       -2.63       -53.97      -63.89      -17.04      
442.65625   -2.63       -62.08      -58.78      -16.82      
442.7125    -2.55       -63.99      -56.73      -17.07      
442.76875   -2.63       -66.58      -57.36      -16.89      
442.825     -2.64       -62.89      -55.82      -17.0       
442.88125   -2.63       -59.43      -59.62      -16.89      
442.9375    -2.62       -67.86      -61.47      -17.04      
442.99375   -2.64       -68.19      -64.27      -16.83      
443.05      -2.65       -57.58      -54.47      -16.85      
443.10625   -2.66       -65.08      -60.46      -16.92      
443.1625    -2.62       -70.87      -61.57      -17.07      
443.21875   -2.68       -59.95      -57.42      -16.96      
443.275     -2.64       -58.38      -60.25      -17.04      
443.33125   -2.68       -59.59      -52.02      -16.84      
443.3875    -2.67       -59.59      -61.04      -17.0       
443.44375   -2.71       -57.38      -56.84      -17.0       
443.5       -2.64       -68.2       -60.08      -16.98      
443.55625   -2.69       -64.82      -54.97      -16.88      
443.6125    -2.64       -56.5       -54.7       -17.0       
443.66875   -2.7        -67.17      -66.74      -16.74      
443.725     -2.66       -59.57      -61.9       -16.95      
443.78125   -2.69       -57.07      -61.08      -16.86      
443.8375    -2.66       -63.37      -69.14      -16.96      
443.89375   -2.66       -55.21      -62.26      -16.82      
443.95      -2.64       -56.7       -64.08      -16.97      
444.00625   -2.69       -53.8       -63.93      -16.84      
444.0625    -2.65       -59.07      -58.61      -16.99      
444.11875   -2.64       -67.13      -59.47      -16.95      
444.175     -2.62       -57.94      -53.08      -17.06      
444.23125   -2.6        -60.72      -55.39      -16.86      
444.2875    -2.55       -59.33      -64.38      -17.02      
444.34375   -2.59       -60.56      -59.06      -16.72      
444.4       -2.56       -65.49      -70.72      -17.01      
444.45625   -2.59       -52.85      -61.79      -16.93      
444.5125    -2.6        -72.96      -59.18      -16.97      
444.56875   -2.59       -55.62      -59.91      -16.88      
444.625     -2.51       -57.7       -55.66      -16.98      
444.68125   -2.58       -55.27      -57.71      -16.81      
444.7375    -2.58       -58.4       -53.04      -17.02      
444.79375   -2.6        -59.78      -57.75      -16.94      
444.85      -2.59       -63.69      -56.0       -17.12      
444.90625   -2.6        -53.36      -58.73      -16.91      
444.9625    -2.58       -61.27      -56.47      -17.03      
445.01875   -2.59       -54.34      -68.89      -16.81      
445.075     -2.56       -67.71      -68.2       -17.02      
445.13125   -2.6        -58.41      -59.99      -16.91      
445.1875    -2.54       -54.67      -67.24      -17.07      
445.24375   -2.58       -73.1       -57.66      -16.84      
445.3       -2.56       -59.98      -57.79      -16.93      
445.35625   -2.58       -80.84      -56.9       -16.85      
445.4125    -2.54       -60.52      -69.98      -17.06      
445.46875   -2.51       -60.04      -63.78      -16.88      
445.525     -2.52       -54.78      -65.21      -16.96      
445.58125   -2.49       -64.58      -62.58      -16.69      
445.6375    -2.45       -55.45      -52.09      -16.98      
445.69375   -2.52       -57.65      -71.24      -16.87      
445.75      -2.48       -53.35      -56.23      -17.0       
445.80625   -2.52       -55.04      -57.35      -16.67      
445.8625    -2.46       -79.2       -61.52      -17.01      
445.91875   -2.49       -66.97      -58.49      -16.9       
445.975     -2.43       -61.21      -55.14      -17.01      
446.03125   -2.46       -73.23      -60.77      -16.77      
446.0875    -2.42       -65.96      -59.93      -17.01      
446.14375   -2.39       -59.13      -65.84      -16.82      
446.2       -2.39       -65.44      -62.74      -17.08      
446.25625   -2.47       -57.25      -55.97      -16.88      
446.3125    -2.44       -67.9       -55.69      -16.96      
446.36875   -2.43       -58.03      -68.13      -16.85      
446.425     -2.37       -62.97      -55.07      -17.12      
446.48125   -2.43       -62.24      -57.34      -16.86      
446.5375    -2.41       -56.87      -59.09      -17.0       
446.59375   -2.44       -66.69      -57.03      -16.93      
446.65      -2.43       -55.77      -57.91      -16.95      
446.70625   -2.4        -59.64      -56.73      -16.85      
446.7625    -2.4        -60.89      -56.08      -16.93      
446.81875   -2.42       -68.53      -70.82      -16.82      
446.875     -2.39       -56.16      -65.61      -17.04      
446.93125   -2.43       -56.6       -55.04      -17.0       
446.9875    -2.4        -69.6       -53.28      -16.99      
447.04375   -2.49       -62.92      -58.7       -16.75      
447.1       -2.39       -53.69      -62.1       -17.11      
447.15625   -2.44       -54.91      -58.72      -16.78      
447.2125    -2.38       -56.51      -57.71      -16.88      
447.26875   -2.47       -60.52      -54.79      -16.8       
447.325     -2.42       -58.37      -66.7       -16.96      
447.38125   -2.42       -58.26      -54.3       -16.91      
447.4375    -2.41       -57.2       -56.63      -17.01      
447.49375   -2.45       -56.62      -64.59      -16.88      
447.55      -2.43       -60.6       -58.11      -16.94      
447.60625   -2.41       -52.32      -56.99      -16.88      
447.6625    -2.43       -58.57      -60.85      -16.93      
447.71875   -2.46       -60.38      -56.01      -16.75      
447.775     -2.43       -59.87      -58.89      -16.99      
447.83125   -2.44       -58.63      -51.09      -16.93      
447.8875    -2.4        -63.28      -55.83      -16.94      
447.94375   -2.45       -58.63      -55.59      -16.8       
448.0       -2.42       -56.74      -54.51      -16.95      
448.05625   -2.46       -55.67      -53.65      -16.65      
448.1125    -2.41       -64.72      -75.49      -16.85      
448.16875   -2.44       -52.0       -68.11      -16.88      
448.225     -2.38       -57.61      -64.12      -16.88      
448.28125   -2.46       -60.5       -58.97      -16.92      
448.3375    -2.39       -81.09      -63.0       -16.94      
448.39375   -2.44       -64.94      -60.35      -16.99      
448.45      -2.38       -61.2       -60.93      -16.96      
448.50625   -2.41       -55.97      -56.62      -16.91      
448.5625    -2.41       -57.92      -55.66      -16.94      
448.61875   -2.4        -54.44      -64.12      -16.76      
448.675     -2.39       -54.63      -55.09      -16.94      
448.73125   -2.42       -63.68      -88.1       -16.86      
448.7875    -2.36       -61.59      -61.4       -16.95      
448.84375   -2.36       -52.18      -65.51      -16.73      
448.9       -2.36       -54.63      -55.25      -16.98      
448.95625   -2.37       -60.36      -64.5       -16.9       
449.0125    -2.35       -55.33      -56.07      -16.93      
449.06875   -2.42       -55.1       -63.07      -16.8       
449.125     -2.37       -66.65      -53.73      -16.89      
449.18125   -2.36       -61.96      -75.82      -16.86      
449.2375    -2.38       -60.99      -57.6       -16.82      
449.29375   -2.43       -61.57      -54.54      -16.97      
449.35      -2.33       -67.16      -57.31      -16.92      
449.40625   -2.39       -55.48      -70.1       -16.89      
449.4625    -2.35       -57.9       -61.41      -16.81      
449.51875   -2.38       -60.74      -60.29      -16.79      
449.575     -2.38       -60.15      -70.48      -16.86      
449.63125   -2.35       -59.83      -55.61      -16.79      
449.6875    -2.32       -67.65      -65.01      -17.04      
449.74375   -2.42       -72.06      -61.2       -16.8       
449.8       -2.38       -57.56      -62.48      -16.86      
449.85625   -2.41       -54.03      -51.07      -16.86      
449.9125    -2.36       -65.15      -52.34      -16.9       
449.96875   -2.35       -55.86      -61.84      -16.81      
450.025     -2.36       -56.12      -64.73      -16.85      
450.08125   -2.39       -62.16      -57.73      -16.89      
450.1375    -2.31       -55.92      -56.61      -16.93      
450.19375   -2.44       -60.13      -57.47      -16.92      
450.25      -2.3        -58.38      -53.55      -16.83      
450.30625   -2.38       -59.73      -59.8       -16.81      
450.3625    -2.34       -58.99      -75.13      -16.86      
450.41875   -2.38       -63.34      -59.6       -16.84      
450.475     -2.37       -52.98      -55.08      -16.85      
450.53125   -2.39       -61.68      -59.66      -16.78      
450.5875    -2.33       -60.38      -58.87      -16.83      
450.64375   -2.37       -61.6       -69.74      -16.77      
450.7       -2.31       -66.86      -53.4       -16.81      
450.75625   -2.38       -59.9       -57.37      -16.86      
450.8125    -2.34       -59.96      -60.87      -16.86      
450.86875   -2.39       -63.11      -56.47      -16.85      
450.925     -2.33       -61.93      -62.31      -16.89      
450.98125   -2.38       -64.51      -60.05      -16.86      
451.0375    -2.33       -56.26      -61.4       -16.94      
451.09375   -2.39       -60.46      -58.58      -16.84      
451.15      -2.36       -61.3       -63.07      -16.82      
451.20625   -2.42       -60.97      -54.5       -16.81      
451.2625    -2.37       -52.87      -67.91      -16.9       
451.31875   -2.38       -65.94      -53.31      -16.86      
451.375     -2.35       -58.12      -61.09      -16.79      
451.43125   -2.38       -65.67      -58.48      -16.88      
451.4875    -2.36       -69.55      -58.21      -16.94      
451.54375   -2.39       -54.64      -52.52      -16.91      
451.6       -2.35       -55.11      -59.57      -17.04      
451.65625   -2.41       -66.52      -53.68      -16.84      
451.7125    -2.35       -60.26      -58.65      -16.72      
451.76875   -2.38       -56.88      -56.97      -16.82      
451.825     -2.35       -52.36      -56.31      -16.92      
451.88125   -2.41       -59.23      -56.04      -16.82      
451.9375    -2.35       -57.79      -69.71      -16.89      
451.99375   -2.38       -63.83      -54.22      -16.94      
452.05      -2.39       -64.31      -62.81      -16.75      
452.10625   -2.4        -59.07      -60.87      -16.86      
452.1625    -2.38       -77.2       -62.47      -16.88      
452.21875   -2.38       -57.33      -54.79      -16.91      
452.275     -2.41       -69.33      -66.98      -16.74      
452.33125   -2.41       -71.4       -67.49      -16.83      
452.3875    -2.41       -60.23      -57.97      -16.69      
452.44375   -2.4        -89.19      -55.4       -16.84      
452.5       -2.38       -66.96      -62.8       -16.77      
452.55625   -2.41       -54.35      -59.04      -16.97      
452.6125    -2.41       -57.52      -60.42      -16.78      
452.66875   -2.41       -59.95      -53.13      -16.74      
452.725     -2.39       -55.69      -65.08      -16.75      
452.78125   -2.42       -58.21      -56.94      -16.84      
452.8375    -2.41       -54.24      -56.54      -16.78      
452.89375   -2.42       -59.49      -69.65      -16.88      
452.95      -2.39       -70.12      -64.6       -16.85      
453.00625   -2.42       -59.51      -56.37      -16.9       
453.0625    -2.39       -55.98      -58.41      -16.7       
453.11875   -2.44       -55.71      -63.19      -16.83      
453.175     -2.39       -59.22      -71.73      -16.71      
453.23125   -2.41       -58.09      -62.19      -16.77      
453.2875    -2.44       -59.71      -59.66      -16.74      
453.34375   -2.49       -53.52      -60.56      -16.95      
453.4       -2.42       -62.36      -61.36      -16.68      
453.45625   -2.43       -62.86      -66.97      -16.88      
453.5125    -2.42       -57.91      -62.01      -16.83      
453.56875   -2.46       -65.12      -58.95      -16.76      
453.625     -2.42       -62.14      -69.86      -16.74      
453.68125   -2.45       -55.47      -54.85      -16.85      
453.7375    -2.44       -59.36      -79.35      -16.87      
453.79375   -2.47       -74.3       -63.83      -16.8       
453.85      -2.41       -61.08      -62.68      -16.84      
453.90625   -2.46       -56.09      -66.8       -16.88      
453.9625    -2.38       -62.04      -56.62      -16.58      
454.01875   -2.45       -59.19      -58.59      -16.94      
454.075     -2.43       -69.11      -61.07      -16.71      
454.13125   -2.48       -65.43      -61.93      -16.87      
454.1875    -2.43       -65.36      -71.11      -16.72      
454.24375   -2.44       -61.83      -58.08      -16.8       
454.3       -2.45       -69.35      -59.6       -16.6       
454.35625   -2.48       -63.46      -53.06      -16.64      
454.4125    -2.46       -62.01      -57.05      -16.77      
454.46875   -2.51       -60.32      -56.63      -16.85      
454.525     -2.46       -60.68      -58.95      -16.76      
454.58125   -2.54       -71.28      -57.85      -16.94      
454.6375    -2.47       -60.59      -64.96      -16.75      
454.69375   -2.57       -70.61      -58.73      -16.8       
454.75      -2.52       -62.23      -69.75      -16.74      
454.80625   -2.58       -81.23      -65.95      -16.79      
454.8625    -2.61       -64.75      -60.15      -16.68      
454.91875   -2.63       -64.22      -65.17      -16.79      
454.975     -2.63       -54.16      -63.35      -16.78      
455.03125   -2.7        -64.35      -54.78      -16.75      
455.0875    -2.63       -62.48      -58.54      -16.76      
455.14375   -2.75       -60.42      -73.7       -16.84      
455.2       -2.77       -60.2       -54.15      -16.74      
455.25625   -2.8        -55.4       -54.6       -16.88      
455.3125    -2.74       -63.05      -60.66      -16.61      
455.36875   -2.74       -62.06      -57.64      -16.72      
455.425     -2.67       -50.6       -66.69      -16.74      
455.48125   -2.75       -59.52      -62.29      -16.76      
455.5375    -2.66       -60.8       -61.1       -16.69      
455.59375   -2.67       -54.38      -60.95      -16.77      
455.65      -2.58       -62.94      -65.91      -16.66      
455.70625   -2.62       -69.4       -59.36      -16.77      
455.7625    -2.57       -56.76      -77.53      -16.58      
455.81875   -2.61       -64.77      -59.75      -16.65      
455.875     -2.53       -77.11      -61.57      -16.65      
455.93125   -2.58       -74.68      -67.25      -16.66      
455.9875    -2.53       -85.7       -69.55      -16.78      
456.04375   -2.54       -67.24      -60.95      -16.86      
456.1       -2.51       -59.45      -73.61      -16.76      
456.15625   -2.52       -54.32      -56.91      -16.89      
456.2125    -2.52       -63.23      -60.81      -16.82      
456.26875   -2.47       -57.14      -65.31      -16.74      
456.325     -2.49       -67.94      -59.98      -16.77      
456.38125   -2.46       -61.35      -64.92      -16.82      
456.4375    -2.52       -64.82      -60.47      -16.65      
456.49375   -2.53       -64.15      -73.32      -16.85      
456.55      -2.48       -64.37      -62.3       -16.61      
456.60625   -2.51       -60.27      -56.32      -16.76      
456.6625    -2.49       -59.46      -58.72      -16.67      
456.71875   -2.5        -60.3       -57.49      -16.86      
456.775     -2.53       -58.79      -57.71      -16.6       
456.83125   -2.53       -77.11      -64.89      -16.95      
456.8875    -2.47       -55.95      -55.28      -16.66      
456.94375   -2.54       -58.23      -65.41      -16.82      
457.0       -2.54       -55.58      -60.79      -16.74      
457.05625   -2.55       -58.79      -55.91      -16.8       
457.1125    -2.53       -57.33      -54.44      -16.72      
457.16875   -2.58       -61.86      -54.68      -16.72      
457.225     -2.56       -62.68      -57.28      -16.61      
457.28125   -2.62       -57.08      -66.91      -16.83      
457.3375    -2.64       -72.58      -56.07      -16.71      
457.39375   -2.63       -56.8       -58.13      -16.75      
457.45      -2.69       -53.14      -56.52      -16.68      
457.50625   -2.75       -63.98      -59.33      -16.83      
457.5625    -2.72       -56.4       -58.15      -16.64      
457.61875   -2.83       -58.98      -56.94      -16.81      
457.675     -2.82       -59.85      -61.06      -16.69      
457.73125   -2.93       -58.85      -71.16      -16.82      
457.7875    -2.97       -63.76      -61.68      -16.61      
457.84375   -3.09       -63.28      -59.38      -16.78      
457.9       -3.13       -54.14      -56.3       -16.57      
457.95625   -3.24       -58.99      -60.02      -16.84      
458.0125    -3.25       -64.73      -52.62      -16.63      
458.06875   -3.4        -56.2       -56.93      -16.85      
458.125     -3.44       -75.8       -60.0       -16.58      
458.18125   -3.53       -57.86      -55.43      -16.7       
458.2375    -3.52       -56.56      -60.06      -16.52      
458.29375   -3.53       -68.51      -59.29      -16.76      
458.35      -3.41       -58.35      -56.19      -16.6       
458.40625   -3.37       -59.48      -51.93      -16.81      
458.4625    -3.22       -59.17      -52.98      -16.61      
458.51875   -3.19       -67.12      -55.15      -16.63      
458.575     -3.05       -85.12      -56.98      -16.52      
458.63125   -3.0        -65.01      -55.16      -16.75      
458.6875    -2.88       -74.13      -56.6       -16.63      
458.74375   -2.88       -56.95      -52.46      -16.79      
458.8       -2.84       -70.35      -69.12      -16.66      
458.85625   -2.84       -56.93      -62.09      -16.85      
458.9125    -2.78       -60.39      -69.42      -16.6       
458.96875   -2.79       -61.6       -60.45      -16.77      
459.025     -2.71       -54.86      -71.82      -16.61      
459.08125   -2.75       -60.23      -56.18      -16.67      
459.1375    -2.67       -60.85      -63.39      -16.62      
459.19375   -2.75       -58.34      -65.91      -16.76      
459.25      -2.69       -66.62      -59.49      -16.65      
459.30625   -2.72       -58.66      -59.99      -16.88      
459.3625    -2.68       -52.95      -62.74      -16.57      
459.41875   -2.72       -61.76      -59.62      -16.85      
459.475     -2.7        -57.4       -57.6       -16.59      
459.53125   -2.76       -75.08      -55.45      -16.78      
459.5875    -2.73       -65.91      -63.43      -16.56      
459.64375   -2.8        -56.86      -60.46      -16.8       
459.7       -2.77       -63.01      -64.51      -16.58      
459.75625   -2.79       -55.42      -53.53      -16.76      
459.8125    -2.8        -65.62      -54.79      -16.54      
459.86875   -2.85       -55.42      -59.18      -16.75      
459.925     -2.83       -62.22      -60.84      -16.61      
459.98125   -2.93       -64.43      -68.92      -16.73      
460.0375    -2.87       -59.07      -58.67      -16.6       
460.09375   -3.01       -62.71      -62.48      -16.72      
460.15      -3.03       -53.06      -61.18      -16.61      
460.20625   -3.13       -66.59      -54.32      -16.68      
460.2625    -3.15       -65.27      -59.07      -16.59      
460.31875   -3.31       -73.1       -61.81      -16.77      
460.375     -3.4        -63.22      -54.54      -16.65      
460.43125   -3.56       -71.87      -64.53      -16.83      
460.4875    -3.69       -72.65      -62.52      -16.49      
460.54375   -3.89       -62.24      -58.93      -16.77      
460.6       -4.04       -57.11      -54.53      -16.65      
460.65625   -4.3        -62.91      -49.79      -16.72      
460.7125    -4.45       -61.63      -55.41      -16.48      
460.76875   -4.7        -76.62      -55.19      -16.75      
460.825     -4.88       -59.46      -59.33      -16.61      
460.88125   -4.88       -63.6       -52.09      -16.72      
460.9375    -4.78       -60.69      -58.69      -16.65      
460.99375   -4.52       -65.95      -56.02      -16.66      
461.05      -4.07       -55.79      -61.86      -16.59      
461.10625   -3.76       -58.63      -55.91      -16.69      
461.1625    -3.49       -61.77      -57.01      -16.57      
461.21875   -3.33       -54.18      -62.85      -16.93      
461.275     -3.18       -54.15      -55.96      -16.61      
461.33125   -3.14       -59.01      -61.85      -16.73      
461.3875    -3.05       -58.92      -58.62      -16.63      
461.44375   -3.07       -57.22      -63.82      -16.59      
461.5       -3.03       -58.26      -55.72      -16.67      
461.55625   -3.03       -54.77      -58.8       -16.75      
461.6125    -2.98       -64.78      -57.4       -16.61      
461.66875   -3.05       -57.62      -53.52      -16.75      
461.725     -3.01       -54.33      -54.81      -16.49      
461.78125   -3.07       -57.38      -56.73      -16.67      
461.8375    -3.11       -65.06      -57.31      -16.59      
461.89375   -3.15       -62.92      -64.96      -16.64      
461.95      -3.2        -67.78      -59.01      -16.63      
462.00625   -3.25       -68.93      -60.17      -16.69      
462.0625    -3.33       -60.86      -53.41      -16.55      
462.11875   -3.43       -58.7       -60.8       -16.7       
462.175     -3.58       -58.35      -70.6       -16.63      
462.23125   -3.79       -57.31      -52.28      -16.71      
462.2875    -3.95       -53.89      -52.6       -16.6       
462.34375   -4.31       -64.36      -50.34      -16.77      
462.4       -4.67       -64.11      -57.53      -16.56      
462.45625   -5.21       -69.96      -52.34      -16.64      
462.5125    -5.83       -61.07      -49.26      -16.62      
462.56875   -6.65       -56.99      -47.31      -16.69      
462.625     -7.78       -58.39      -46.6       -16.54      
462.68125   -9.13       -56.16      -43.35      -16.65      
462.7375    -10.86      -64.46      -42.13      -16.56      
462.79375   -13.01      -61.51      -42.48      -16.63      
462.85      -15.61      -54.81      -40.16      -16.46      
462.90625   -18.68      -58.14      -41.97      -16.65      
462.9625    -21.39      -50.15      -39.68      -16.5       
463.01875   -21.96      -56.22      -41.01      -16.61      
463.075     -20.81      -57.5       -40.62      -16.62      
463.13125   -19.17      -56.1       -40.3       -16.62      
463.1875    -17.88      -56.92      -39.8       -16.61      
463.24375   -16.97      -55.34      -40.37      -16.65      
463.3       -16.57      -62.66      -41.19      -16.5       
463.35625   -16.04      -57.68      -40.85      -16.6       
463.4125    -15.96      -57.28      -41.79      -16.44      
463.46875   -15.95      -69.78      -41.03      -16.59      
463.525     -15.88      -61.51      -40.83      -16.49      
463.58125   -16.2       -60.79      -40.92      -16.48      
463.6375    -16.33      -57.86      -40.33      -16.55      
463.69375   -16.71      -57.5       -39.96      -16.6       
463.75      -17.13      -59.29      -40.64      -16.48      
463.80625   -17.45      -61.86      -39.35      -16.6       
463.8625    -17.8       -68.33      -40.08      -16.53      
463.91875   -18.3       -62.06      -39.26      -16.6       
463.975     -18.43      -54.07      -39.25      -16.65      
464.03125   -18.47      -53.41      -37.78      -16.69      
464.0875    -18.52      -55.05      -38.16      -16.53      
464.14375   -18.43      -56.98      -37.79      -16.64      
464.2       -18.06      -57.22      -38.18      -16.6       
464.25625   -17.86      -57.82      -37.5       -16.69      
464.3125    -17.45      -58.29      -37.86      -16.5       
464.36875   -16.96      -61.74      -36.37      -16.67      
464.425     -16.56      -54.51      -36.02      -16.76      
464.48125   -16.09      -53.56      -36.45      -16.64      
464.5375    -15.58      -52.97      -36.85      -16.55      
464.59375   -15.14      -58.65      -36.31      -16.54      
464.65      -14.63      -59.82      -36.47      -16.59      
464.70625   -14.34      -62.51      -36.88      -16.6       
464.7625    -13.94      -55.83      -36.95      -16.64      
464.81875   -13.59      -53.91      -36.45      -16.7       
464.875     -13.27      -57.92      -35.84      -16.5       
464.93125   -13.0       -60.49      -36.77      -16.56      
464.9875    -12.74      -55.13      -37.9       -16.45      
465.04375   -12.45      -62.09      -36.22      -16.7       
465.1       -12.32      -69.05      -37.13      -16.59      
465.15625   -12.05      -58.82      -36.52      -16.59      
465.2125    -11.84      -71.78      -36.21      -16.5       
465.26875   -11.8       -60.16      -36.33      -16.54      
465.325     -11.6       -63.12      -37.15      -16.55      
465.38125   -11.58      -60.53      -38.25      -16.61      
465.4375    -11.51      -66.15      -37.1       -16.53      
465.49375   -11.36      -71.09      -36.8       -16.6       
465.55      -11.27      -66.26      -37.92      -16.61      
465.60625   -11.34      -67.77      -36.9       -16.52      
465.6625    -11.23      -56.52      -38.02      -16.62      
465.71875   -11.22      -63.52      -37.24      -16.63      
465.775     -11.2       -61.79      -37.13      -16.52      
465.83125   -11.17      -57.94      -38.72      -16.5       
465.8875    -11.19      -61.28      -37.53      -16.57      
465.94375   -11.23      -54.0       -38.51      -16.68      
466.0       -11.21      -54.86      -38.14      -16.57      
466.05625   -11.21      -61.86      -38.14      -16.71      
466.1125    -11.25      -79.31      -38.15      -16.55      
466.16875   -11.31      -61.09      -38.28      -16.56      
466.225     -11.38      -57.3       -37.66      -16.63      
466.28125   -11.44      -66.22      -39.23      -16.56      
466.3375    -11.44      -57.05      -37.94      -16.46      
466.39375   -11.54      -56.83      -37.96      -16.58      
466.45      -11.57      -57.3       -38.78      -16.55      
466.50625   -11.71      -51.95      -38.64      -16.51      
466.5625    -11.76      -55.4       -38.11      -16.5       
466.61875   -11.83      -65.96      -39.09      -16.56      
466.675     -11.89      -56.96      -37.5       -16.61      
466.73125   -12.06      -68.06      -40.25      -16.59      
466.7875    -12.09      -66.25      -38.89      -16.56      
466.84375   -12.22      -60.16      -39.37      -16.45      
466.9       -12.35      -62.47      -37.53      -16.47      
466.95625   -12.44      -60.1       -39.2       -16.53      
467.0125    -12.54      -62.63      -38.2       -16.5       
467.06875   -12.68      -58.24      -39.43      -16.5       
467.125     -12.77      -58.13      -37.95      -16.51      
467.18125   -12.89      -64.64      -39.73      -16.56      
467.2375    -13.01      -54.17      -38.57      -16.59      
467.29375   -13.11      -59.09      -38.04      -16.52      
467.35      -13.26      -66.25      -37.45      -16.61      
467.40625   -13.36      -58.99      -39.18      -16.56      
467.4625    -13.41      -56.15      -37.66      -16.56      
467.51875   -13.58      -57.35      -38.18      -16.5       
467.575     -13.72      -69.38      -38.01      -16.48      
467.63125   -13.85      -55.54      -38.42      -16.65      
467.6875    -13.77      -69.79      -37.37      -16.4       
467.74375   -14.07      -80.92      -38.36      -16.47      
467.8       -14.05      -61.66      -37.07      -16.61      
467.85625   -14.2       -52.81      -38.31      -16.52      
467.9125    -14.22      -67.47      -36.92      -16.56      
467.96875   -14.26      -60.29      -37.34      -16.49      
468.025     -14.34      -62.61      -36.8       -16.55      
468.08125   -14.41      -55.82      -37.31      -16.41      
468.1375    -14.48      -59.26      -36.95      -16.47      
468.19375   -14.47      -53.31      -37.51      -16.34      
468.25      -14.54      -58.46      -36.84      -16.5       
468.30625   -14.68      -61.09      -37.17      -16.52      
468.3625    -14.69      -55.64      -36.05      -16.43      
468.41875   -14.66      -72.44      -36.89      -16.6       
468.475     -14.73      -59.0       -36.92      -16.58      
468.53125   -14.68      -60.77      -36.77      -16.49      
468.5875    -14.7       -59.66      -36.96      -16.66      
468.64375   -14.59      -56.14      -36.9       -16.59      
468.7       -14.59      -59.82      -37.23      -16.63      
468.75625   -14.62      -55.55      -36.8       -16.4       
468.8125    -14.53      -65.87      -35.61      -16.57      
468.86875   -14.57      -58.53      -37.06      -16.48      
468.925     -14.55      -56.54      -36.62      -16.61      
468.98125   -14.55      -63.4       -36.53      -16.5       
469.0375    -14.57      -56.63      -35.81      -16.55      
469.09375   -14.53      -60.67      -35.96      -16.39      
469.15      -14.49      -60.97      -35.35      -16.47      
469.20625   -14.58      -59.1       -36.69      -16.47      
469.2625    -14.43      -70.89      -36.23      -16.55      
469.31875   -14.46      -62.93      -36.18      -16.43      
469.375     -14.36      -60.03      -35.72      -16.58      
469.43125   -14.41      -60.15      -36.9       -16.41      
469.4875    -14.37      -70.61      -35.77      -16.56      
469.54375   -14.44      -57.21      -37.04      -16.39      
469.6       -14.46      -54.18      -35.8       -16.54      
469.65625   -14.41      -59.36      -36.58      -16.5       
469.7125    -14.3       -55.2       -36.19      -16.65      
469.76875   -14.38      -56.23      -36.25      -16.49      
469.825     -14.4       -53.25      -35.95      -16.47      
469.88125   -14.44      -61.79      -36.55      -16.39      
469.9375    -14.37      -58.05      -35.74      -16.43      
469.99375   -14.47      -56.9       -36.06      -16.42      
470.05      -14.35      -62.44      -35.75      -16.53      
470.10625   -14.39      -57.76      -36.07      -16.43      
470.1625    -14.46      -62.14      -36.78      -16.47      
470.21875   -14.48      -62.3       -36.4       -16.49      
470.275     -14.45      -60.39      -36.08      -16.61      
470.33125   -14.55      -66.49      -36.18      -16.46      
470.3875    -14.54      -70.38      -35.87      -16.52      
470.44375   -14.63      -75.97      -36.13      -16.49      
470.5       -14.57      -68.19      -36.39      -16.52      
470.55625   -14.68      -66.59      -36.33      -16.37      
470.6125    -14.68      -55.57      -36.0       -16.42      
470.66875   -14.79      -61.99      -36.68      -16.42      
470.725     -14.67      -60.18      -36.07      -16.62      
470.78125   -14.83      -57.94      -35.75      -16.44      
470.8375    -14.8       -60.5       -36.61      -16.49      
470.89375   -14.97      -61.2       -35.64      -16.35      
470.95      -14.8       -58.83      -36.02      -16.56      
471.00625   -14.94      -54.66      -35.94      -16.49      
471.0625    -15.08      -63.6       -35.88      -16.56      
471.11875   -15.15      -58.8       -35.72      -16.44      
471.175     -15.19      -58.62      -36.03      -16.64      
471.23125   -15.43      -67.26      -35.62      -16.4       
471.2875    -15.41      -60.9       -36.25      -16.63      
471.34375   -15.49      -60.56      -35.54      -16.49      
471.4       -15.59      -61.74      -35.96      -16.53      
471.45625   -15.62      -54.56      -35.54      -16.39      
471.5125    -15.67      -57.51      -35.75      -16.63      
471.56875   -15.71      -62.83      -35.29      -16.33      
471.625     -15.82      -56.87      -35.88      -16.58      
471.68125   -15.88      -57.37      -35.16      -16.44      
471.7375    -15.84      -58.67      -35.56      -16.57      
471.79375   -16.04      -60.74      -34.93      -16.46      
471.85      -16.01      -69.01      -35.74      -16.55      
471.90625   -16.14      -58.37      -35.55      -16.39      
471.9625    -16.15      -58.1       -35.48      -16.61      
472.01875   -16.23      -57.99      -34.33      -16.36      
472.075     -16.28      -56.05      -35.13      -16.53      
472.13125   -16.2       -60.94      -35.09      -16.43      
472.1875    -16.34      -54.23      -35.56      -16.52      
472.24375   -16.34      -54.58      -35.33      -16.41      
472.3       -16.31      -57.74      -35.04      -16.49      
472.35625   -16.37      -60.69      -34.85      -16.32      
472.4125    -16.26      -53.95      -35.12      -16.51      
472.46875   -16.47      -68.96      -34.58      -16.36      
472.525     -16.39      -60.68      -35.61      -16.51      
472.58125   -16.42      -53.42      -34.32      -16.27      
472.6375    -16.44      -53.54      -34.72      -16.45      
472.69375   -16.3       -60.65      -34.62      -16.48      
472.75      -16.22      -55.4       -35.09      -16.62      
472.80625   -16.19      -57.32      -33.96      -16.4       
472.8625    -16.16      -64.41      -34.0       -16.45      
472.91875   -16.04      -62.12      -34.27      -16.36      
472.975     -15.99      -55.4       -34.65      -16.47      
473.03125   -15.91      -56.33      -34.16      -16.38      
473.0875    -15.76      -56.6       -34.77      -16.58      
473.14375   -15.79      -57.64      -34.02      -16.35      
473.2       -15.62      -55.75      -34.54      -16.37      
473.25625   -15.54      -58.95      -33.56      -16.39      
473.3125    -15.4       -67.23      -33.63      -16.52      
473.36875   -15.28      -63.29      -34.13      -16.26      
473.425     -15.26      -57.59      -33.87      -16.61      
473.48125   -15.13      -63.19      -33.79      -16.37      
473.5375    -15.07      -67.43      -33.9       -16.58      
473.59375   -14.9       -54.16      -33.26      -16.39      
473.65      -14.81      -60.08      -34.46      -16.47      
473.70625   -14.77      -59.43      -33.32      -16.3       
473.7625    -14.61      -61.5       -33.42      -16.41      
473.81875   -14.53      -57.96      -33.67      -16.38      
473.875     -14.31      -58.8       -33.55      -16.55      
473.93125   -14.2       -52.93      -32.82      -16.34      
473.9875    -13.94      -61.92      -33.67      -16.43      
474.04375   -13.87      -54.27      -33.19      -16.22      
474.1       -13.78      -49.89      -33.11      -16.54      
474.15625   -13.62      -55.66      -32.85      -16.36      
474.2125    -13.47      -57.35      -33.17      -16.47      
474.26875   -13.32      -65.43      -32.59      -16.35      
474.325     -13.27      -55.66      -33.2       -16.49      
474.38125   -13.06      -56.63      -32.5       -16.4       
474.4375    -12.92      -54.72      -32.78      -16.44      
474.49375   -12.78      -56.1       -32.48      -16.41      
474.55      -12.63      -55.76      -33.4       -16.36      
474.60625   -12.56      -59.28      -32.85      -16.33      
474.6625    -12.42      -66.16      -33.23      -16.55      
474.71875   -12.38      -53.75      -32.34      -16.28      
474.775     -12.24      -58.87      -32.75      -16.61      
474.83125   -12.11      -71.65      -32.53      -16.26      
474.8875    -11.95      -56.66      -32.77      -16.41      
474.94375   -11.88      -58.56      -32.53      -16.39      
475.0       -11.68      -55.68      -32.71      -16.49      
475.05625   -11.64      -71.21      -32.65      -16.28      
475.1125    -11.54      -59.24      -32.13      -16.47      
475.16875   -11.47      -57.66      -32.33      -16.3       
475.225     -11.34      -66.62      -32.46      -16.38      
475.28125   -11.22      -72.93      -32.74      -16.39      
475.3375    -11.11      -64.24      -32.08      -16.56      
475.39375   -10.99      -58.44      -32.56      -16.35      
475.45      -10.94      -51.17      -32.22      -16.41      
475.50625   -10.78      -56.86      -32.12      -16.22      
475.5625    -10.68      -73.46      -32.4       -16.48      
475.61875   -10.61      -58.83      -32.27      -16.36      
475.675     -10.54      -55.94      -32.41      -16.46      
475.73125   -10.49      -60.06      -32.45      -16.34      
475.7875    -10.36      -57.41      -31.99      -16.46      
475.84375   -10.38      -70.01      -32.98      -16.3       
475.9       -10.21      -61.56      -32.38      -16.48      
475.95625   -10.13      -58.76      -32.7       -16.32      
476.0125    -10.06      -53.55      -32.59      -16.5       
476.06875   -10.01      -59.47      -32.46      -16.37      
476.125     -10.01      -55.31      -32.51      -16.42      
476.18125   -9.93       -61.38      -32.41      -16.28      
476.2375    -9.81       -66.24      -32.05      -16.35      
476.29375   -9.82       -54.79      -32.47      -16.27      
476.35      -9.72       -61.79      -32.61      -16.43      
476.40625   -9.69       -59.26      -32.22      -16.33      
476.4625    -9.64       -64.88      -31.88      -16.42      
476.51875   -9.63       -65.72      -32.86      -16.26      
476.575     -9.5        -56.04      -32.12      -16.44      
476.63125   -9.51       -58.41      -33.13      -16.22      
476.6875    -9.43       -58.73      -32.45      -16.35      
476.74375   -9.45       -63.61      -32.4       -16.31      
476.8       -9.39       -68.49      -32.23      -16.38      
476.85625   -9.33       -60.87      -32.62      -16.37      
476.9125    -9.3        -56.52      -32.4       -16.46      
476.96875   -9.19       -60.7       -32.92      -16.26      
477.025     -9.16       -59.87      -32.96      -16.38      
477.08125   -9.15       -57.78      -32.67      -16.28      
477.1375    -9.12       -57.87      -32.51      -16.44      
477.19375   -9.12       -55.39      -33.03      -16.25      
477.25      -9.1        -61.76      -32.52      -16.56      
477.30625   -9.12       -62.43      -32.78      -16.24      
477.3625    -9.1        -54.32      -33.24      -16.47      
477.41875   -9.11       -66.04      -33.69      -16.27      
477.475     -9.02       -53.1       -32.99      -16.46      
477.53125   -9.03       -61.71      -32.88      -16.29      
477.5875    -9.03       -57.63      -32.42      -16.45      
477.64375   -9.05       -56.2       -33.35      -16.3       
477.7       -9.07       -56.82      -33.12      -16.3       
477.75625   -9.08       -57.63      -33.16      -16.3       
477.8125    -9.01       -60.45      -32.61      -16.35      
477.86875   -9.0        -63.74      -33.81      -16.26      
477.925     -9.02       -63.53      -33.57      -16.41      
477.98125   -9.06       -69.21      -33.29      -16.3       
478.0375    -9.03       -59.13      -33.48      -16.44      
478.09375   -9.04       -68.48      -33.39      -16.28      
478.15      -9.05       -52.42      -33.61      -16.39      
478.20625   -9.07       -60.36      -33.79      -16.28      
478.2625    -9.01       -64.22      -33.11      -16.45      
478.31875   -9.04       -60.41      -33.91      -16.26      
478.375     -9.03       -54.77      -32.76      -16.41      
478.43125   -9.09       -66.09      -33.73      -16.32      
478.4875    -9.07       -63.8       -32.69      -16.38      
478.54375   -9.12       -65.27      -34.11      -16.24      
478.6       -9.1        -55.57      -33.33      -16.41      
478.65625   -9.19       -66.59      -34.83      -16.29      
478.7125    -9.19       -60.21      -33.78      -16.37      
478.76875   -9.17       -58.72      -33.57      -16.35      
478.825     -9.22       -68.07      -33.86      -16.35      
478.88125   -9.26       -59.51      -34.84      -16.31      
478.9375    -9.27       -59.65      -33.53      -16.38      
478.99375   -9.34       -65.7       -34.63      -16.16      
479.05      -9.35       -65.8       -33.79      -16.41      
479.10625   -9.45       -60.65      -34.58      -16.27      
479.1625    -9.38       -54.46      -33.92      -16.42      
479.21875   -9.51       -54.15      -34.27      -16.36      
479.275     -9.54       -57.79      -34.14      -16.23      
479.33125   -9.57       -53.24      -34.69      -16.31      
479.3875    -9.64       -57.89      -33.84      -16.33      
479.44375   -9.78       -62.71      -34.94      -16.37      
479.5       -9.78       -54.4       -33.81      -16.33      
479.55625   -9.88       -57.87      -34.78      -16.29      
479.6125    -9.87       -58.41      -34.22      -16.29      
479.66875   -10.0       -54.69      -34.96      -16.24      
479.725     -10.02      -66.67      -34.33      -16.41      
479.78125   -10.09      -56.91      -34.6       -16.22      
479.8375    -10.11      -63.37      -34.25      -16.46      
479.89375   -10.25      -66.44      -34.46      -16.25      
479.95      -10.26      -58.85      -33.7       -16.32      
480.00625   -10.35      -60.35      -34.99      -16.32      
480.0625    -10.39      -61.26      -34.25      -16.35      
480.11875   -10.51      -62.94      -34.71      -16.34      
480.175     -10.52      -56.38      -34.74      -16.29      
480.23125   -10.61      -64.13      -35.47      -16.39      
480.2875    -10.7       -65.06      -34.75      -16.37      
480.34375   -10.82      -59.03      -35.44      -16.33      
480.4       -10.9       -57.51      -34.32      -16.37      
480.45625   -10.99      -63.82      -35.63      -16.34      
480.5125    -11.08      -63.56      -34.76      -16.33      
480.56875   -11.13      -56.85      -35.57      -16.33      
480.625     -11.13      -60.59      -34.97      -16.32      
480.68125   -11.33      -63.36      -35.03      -16.26      
480.7375    -11.42      -66.9       -34.96      -16.3       
480.79375   -11.53      -60.43      -35.36      -16.19      
480.85      -11.61      -56.63      -34.83      -16.34      
480.90625   -11.77      -56.91      -35.35      -16.27      
480.9625    -11.9       -55.07      -34.87      -16.39      
481.01875   -12.05      -60.99      -35.73      -16.27      
481.075     -12.15      -62.81      -35.1       -16.39      
481.13125   -12.24      -59.49      -35.38      -16.25      
481.1875    -12.32      -56.37      -34.96      -16.3       
481.24375   -12.42      -55.24      -35.31      -16.37      
481.3       -12.54      -60.91      -35.96      -16.37      
481.35625   -12.62      -61.29      -35.35      -16.33      
481.4125    -12.78      -72.59      -35.07      -16.37      
481.46875   -12.94      -57.68      -34.97      -16.34      
481.525     -12.98      -57.14      -34.65      -16.25      
481.58125   -13.07      -59.15      -35.14      -16.32      
481.6375    -13.24      -64.23      -35.46      -16.21      
481.69375   -13.35      -56.03      -35.1       -16.36      
481.75      -13.54      -82.9       -35.16      -16.38      
481.80625   -13.58      -62.64      -35.16      -16.39      
481.8625    -13.63      -69.09      -35.07      -16.29      
481.91875   -13.79      -57.04      -34.55      -16.33      
481.975     -13.9       -63.54      -35.18      -16.18      
482.03125   -14.08      -62.26      -34.74      -16.35      
482.0875    -14.03      -59.63      -34.76      -16.4       
482.14375   -14.23      -63.82      -35.08      -16.19      
482.2       -14.26      -58.84      -35.02      -16.3       
482.25625   -14.28      -60.37      -34.86      -16.32      
482.3125    -14.41      -60.35      -35.15      -16.27      
482.36875   -14.5       -58.02      -34.5       -16.35      
482.425     -14.45      -60.49      -34.98      -16.24      
482.48125   -14.62      -58.95      -34.58      -16.25      
482.5375    -14.51      -67.93      -34.99      -16.29      
482.59375   -14.51      -74.51      -34.39      -16.44      
482.65      -14.5       -54.01      -34.45      -16.36      
482.70625   -14.45      -56.62      -34.36      -16.32      
482.7625    -14.48      -58.07      -34.92      -16.32      
482.81875   -14.43      -55.61      -34.47      -16.28      
482.875     -14.33      -63.72      -34.1       -16.32      
482.93125   -14.31      -61.07      -34.52      -16.35      
482.9875    -14.35      -57.27      -34.59      -16.3       
483.04375   -14.22      -59.63      -33.78      -16.3       
483.1       -14.2       -58.54      -34.46      -16.37      
483.15625   -14.27      -63.89      -34.11      -16.19      
483.2125    -14.21      -57.97      -34.45      -16.24      
483.26875   -14.2       -65.59      -33.33      -16.38      
483.325     -14.15      -61.22      -34.47      -16.15      
483.38125   -14.19      -80.56      -33.9       -16.34      
483.4375    -14.09      -57.09      -34.62      -16.53      
483.49375   -14.08      -61.21      -33.64      -16.34      
483.55      -13.99      -59.18      -35.07      -16.19      
483.60625   -13.96      -55.97      -33.69      -16.43      
483.6625    -13.88      -73.59      -34.75      -16.19      
483.71875   -13.92      -69.41      -33.97      -16.28      
483.775     -13.98      -61.92      -34.61      -16.2       
483.83125   -13.89      -57.34      -34.05      -16.26      
483.8875    -13.86      -60.49      -34.83      -16.24      
483.94375   -13.79      -63.12      -33.96      -16.28      
484.0       -13.75      -62.51      -34.62      -16.24      
484.05625   -13.62      -57.09      -33.59      -16.36      
484.1125    -13.58      -61.0       -34.02      -16.26      
484.16875   -13.64      -61.25      -33.59      -16.3       
484.225     -13.56      -52.25      -34.63      -16.31      
484.28125   -13.64      -62.49      -33.95      -16.46      
484.3375    -13.61      -55.77      -34.69      -16.21      
484.39375   -13.53      -58.47      -34.13      -16.37      
484.45      -13.54      -54.12      -34.53      -16.29      
484.50625   -13.68      -59.2       -34.85      -16.28      
484.5625    -13.67      -61.41      -34.95      -16.32      
484.61875   -13.7       -66.57      -34.67      -16.33      
484.675     -13.74      -59.01      -35.19      -16.26      
484.73125   -13.86      -60.48      -34.61      -16.41      
484.7875    -13.83      -56.92      -34.88      -16.22      
484.84375   -13.89      -62.99      -34.22      -16.33      
484.9       -13.9       -60.38      -34.47      -16.29      
484.95625   -14.05      -71.01      -34.73      -16.33      
485.0125    -14.1       -63.1       -35.32      -16.34      
485.06875   -14.11      -60.25      -34.51      -16.29      
485.125     -14.11      -60.28      -34.7       -16.2       
485.18125   -14.24      -60.51      -34.66      -16.34      
485.2375    -14.22      -59.05      -35.76      -16.19      
485.29375   -14.46      -65.04      -35.26      -16.34      
485.35      -14.49      -62.29      -35.5       -16.22      
485.40625   -14.79      -68.37      -34.86      -16.31      
485.4625    -14.92      -56.84      -35.98      -16.27      
485.51875   -15.05      -60.17      -35.15      -16.28      
485.575     -15.34      -57.76      -36.41      -16.29      
485.63125   -15.42      -58.28      -35.59      -16.23      
485.6875    -15.72      -76.09      -36.5       -16.19      
485.74375   -15.98      -56.56      -35.69      -16.31      
485.8       -16.39      -50.71      -35.59      -16.32      
485.85625   -16.77      -54.75      -36.09      -16.3       
485.9125    -17.03      -69.49      -37.8       -16.19      
485.96875   -17.48      -57.07      -36.24      -16.4       
486.025     -17.98      -66.66      -36.1       -16.28      
486.08125   -18.63      -68.92      -35.6       -16.32      
486.1375    -19.14      -57.65      -37.52      -16.03      
486.19375   -19.91      -64.48      -36.39      -16.31      
486.25      -20.72      -55.72      -37.28      -16.27      
486.30625   -21.53      -57.8       -37.17      -16.43      
486.3625    -22.54      -61.14      -36.92      -16.25      
486.41875   -23.88      -64.9       -36.62      -16.48      
486.475     -24.99      -58.71      -37.66      -16.3       
486.53125   -26.61      -60.41      -36.46      -16.2       
486.5875    -28.18      -60.3       -37.43      -16.32      
486.64375   -30.67      -59.05      -36.25      -16.39      
486.7       -33.19      -63.93      -36.92      -16.27      
486.75625   -33.6       -58.66      -36.07      -16.38      
486.8125    -33.34      -65.31      -37.13      -16.22      
486.86875   -31.19      -86.09      -35.88      -16.44      
486.925     -29.21      -60.82      -35.65      -16.21      
486.98125   -27.43      -58.81      -35.65      -16.39      
487.0375    -25.86      -58.57      -36.03      -16.14      
487.09375   -24.21      -63.95      -35.59      -16.41      
487.15      -23.0       -61.65      -35.7       -16.22      
487.20625   -21.8       -63.89      -35.62      -16.35      
487.2625    -20.6       -75.82      -35.66      -16.24      
487.31875   -19.26      -56.37      -35.57      -16.32      
487.375     -18.35      -61.2       -35.37      -16.2       
487.43125   -17.44      -58.59      -35.25      -16.32      
487.4875    -16.56      -58.18      -35.23      -16.3       
487.54375   -15.74      -59.59      -34.64      -16.26      
487.6       -14.97      -59.41      -34.79      -16.23      
487.65625   -14.31      -52.66      -34.3       -16.41      
487.7125    -13.66      -61.51      -34.27      -16.17      
487.76875   -13.14      -58.49      -34.18      -16.34      
487.825     -12.61      -62.14      -33.68      -16.21      
487.88125   -12.04      -62.58      -33.4       -16.38      
487.9375    -11.54      -56.26      -33.43      -16.25      
487.99375   -11.11      -58.85      -33.04      -16.32      
488.05      -10.6       -56.0       -33.35      -16.23      
488.10625   -10.13      -63.16      -33.24      -16.48      
488.1625    -9.72       -60.07      -33.15      -16.14      
488.21875   -9.34       -61.85      -33.1       -16.4       
488.275     -8.97       -74.46      -32.68      -16.18      
488.33125   -8.56       -65.88      -33.24      -16.42      
488.3875    -8.27       -54.19      -32.87      -16.19      
488.44375   -7.95       -62.05      -32.5       -16.4       
488.5       -7.7        -59.86      -32.39      -16.24      
488.55625   -7.45       -61.87      -32.59      -16.38      
488.6125    -7.21       -55.83      -32.39      -16.2       
488.66875   -7.04       -57.14      -32.69      -16.5       
488.725     -6.78       -61.47      -32.36      -16.11      
488.78125   -6.57       -54.95      -32.51      -16.35      
488.8375    -6.38       -54.88      -32.58      -16.25      
488.89375   -6.19       -64.36      -32.9       -16.32      
488.95      -5.94       -69.98      -32.1       -16.19      
489.00625   -5.76       -54.58      -32.91      -16.49      
489.0625    -5.57       -54.3       -32.47      -16.28      
489.11875   -5.43       -61.72      -32.71      -16.44      
489.175     -5.27       -54.36      -32.67      -16.2       
489.23125   -5.12       -55.57      -33.23      -16.35      
489.2875    -4.96       -58.24      -32.55      -16.19      
489.34375   -4.89       -79.08      -33.31      -16.34      
489.4       -4.75       -62.15      -32.85      -16.12      
489.45625   -4.67       -55.18      -33.31      -16.37      
489.5125    -4.54       -67.04      -32.97      -16.2       
489.56875   -4.42       -66.84      -33.93      -16.38      
489.625     -4.33       -58.78      -33.67      -16.31      
489.68125   -4.27       -67.11      -34.42      -16.42      
489.7375    -4.14       -54.8       -33.79      -16.3       
489.79375   -4.09       -53.45      -34.61      -16.47      
489.85      -4.0        -67.25      -33.7       -16.19      
489.90625   -3.9        -56.54      -35.09      -16.3       
489.9625    -3.85       -63.51      -33.63      -16.19      
490.01875   -3.77       -59.69      -34.86      -16.48      
490.075     -3.68       -60.32      -35.14      -16.18      
490.13125   -3.64       -56.35      -35.64      -16.46      
490.1875    -3.53       -54.5       -35.32      -16.2       
490.24375   -3.51       -70.07      -35.71      -16.38      
490.3       -3.44       -60.73      -35.81      -16.19      
490.35625   -3.41       -58.58      -36.49      -16.32      
490.4125    -3.29       -55.19      -35.41      -16.18      
490.46875   -3.28       -59.91      -36.93      -16.39      
490.525     -3.21       -61.58      -35.65      -16.16      
490.58125   -3.22       -59.61      -37.21      -16.42      
490.6375    -3.14       -71.46      -36.45      -16.18      
490.69375   -3.13       -56.34      -37.15      -16.41      
490.75      -3.05       -50.12      -37.34      -16.11      
490.80625   -3.07       -57.22      -38.44      -16.32      
490.8625    -3.01       -63.85      -37.44      -16.2       
490.91875   -3.04       -55.97      -38.01      -16.35      
490.975     -2.97       -50.59      -37.67      -16.23      
491.03125   -2.92       -53.81      -38.44      -16.29      
491.0875    -2.85       -57.48      -38.34      -16.23      
491.14375   -2.88       -53.35      -38.8       -16.36      
491.2       -2.82       -62.24      -38.28      -16.18      
491.25625   -2.84       -61.8       -39.46      -16.38      
491.3125    -2.8        -58.29      -39.19      -16.23      
491.36875   -2.81       -66.41      -39.13      -16.35      
491.425     -2.76       -61.9       -38.71      -16.24      
491.48125   -2.74       -54.1       -40.96      -16.38      
491.5375    -2.73       -55.03      -39.45      -16.27      
491.59375   -2.7        -52.03      -40.0       -16.38      
491.65      -2.66       -71.32      -39.78      -16.25      
491.70625   -2.67       -56.25      -41.3       -16.34      
491.7625    -2.63       -60.6       -40.48      -16.23      
491.81875   -2.62       -62.07      -40.6       -16.35      
491.875     -2.55       -66.09      -41.4       -16.22      
491.93125   -2.59       -58.26      -41.52      -16.34      
491.9875    -2.56       -70.29      -40.76      -16.27      
492.04375   -2.57       -55.71      -41.82      -16.43      
492.1       -2.52       -61.93      -40.99      -16.29      
492.15625   -2.53       -56.6       -41.25      -16.37      
492.2125    -2.49       -58.26      -41.95      -16.2       
492.26875   -2.55       -64.71      -42.74      -16.44      
492.325     -2.49       -56.87      -43.49      -16.15      
492.38125   -2.47       -59.65      -43.9       -16.29      
492.4375    -2.47       -60.29      -42.75      -16.25      
492.49375   -2.51       -61.22      -42.91      -16.33      
492.55      -2.46       -53.35      -42.81      -16.16      
492.60625   -2.44       -59.98      -42.58      -16.43      
492.6625    -2.42       -79.05      -42.95      -16.21      
492.71875   -2.45       -62.45      -42.89      -16.45      
492.775     -2.39       -58.26      -43.31      -16.24      
492.83125   -2.39       -55.74      -44.56      -16.33      
492.8875    -2.38       -67.13      -45.6       -16.3       
492.94375   -2.4        -61.27      -44.4       -16.37      
493.0       -2.37       -52.61      -44.55      -16.35      
493.05625   -2.37       -54.9       -43.99      -16.31      
493.1125    -2.35       -70.69      -47.98      -16.15      
493.16875   -2.35       -65.86      -44.2       -16.38      
493.225     -2.32       -64.19      -46.69      -16.24      
493.28125   -2.34       -58.46      -45.89      -16.38      
493.3375    -2.33       -66.4       -47.47      -16.27      
493.39375   -2.3        -60.55      -46.05      -16.3       
493.45      -2.24       -61.87      -46.86      -16.17      
493.50625   -2.32       -67.77      -45.55      -16.37      
493.5625    -2.29       -64.95      -46.36      -16.27      
493.61875   -2.31       -63.68      -44.98      -16.29      
493.675     -2.24       -54.66      -46.72      -16.25      
493.73125   -2.3        -55.27      -44.77      -16.39      
493.7875    -2.27       -58.25      -50.66      -16.24      
493.84375   -2.31       -52.56      -46.47      -16.31      
493.9       -2.26       -61.8       -52.22      -16.28      
493.95625   -2.27       -57.44      -45.98      -16.32      
494.0125    -2.27       -63.27      -48.77      -16.33      
494.06875   -2.27       -58.68      -47.21      -16.34      
494.125     -2.26       -55.37      -47.05      -16.24      
494.18125   -2.28       -56.24      -45.5       -16.33      
494.2375    -2.24       -58.4       -49.77      -16.21      
494.29375   -2.27       -60.71      -48.49      -16.34      
494.35      -2.25       -59.82      -52.33      -16.16      
494.40625   -2.27       -55.02      -47.49      -16.26      
494.4625    -2.22       -54.92      -53.77      -16.25      
494.51875   -2.26       -59.49      -49.84      -16.41      
494.575     -2.2        -55.51      -48.06      -16.3       
494.63125   -2.2        -66.61      -48.03      -16.36      
494.6875    -2.24       -57.84      -54.7       -16.19      
494.74375   -2.22       -57.98      -49.22      -16.28      
494.8       -2.21       -58.27      -52.21      -16.29      
494.85625   -2.23       -72.43      -50.55      -16.28      
494.9125    -2.19       -55.63      -58.04      -16.26      
494.96875   -2.24       -55.27      -45.6       -16.49      
495.025     -2.22       -61.49      -50.93      -16.33      
495.08125   -2.21       -61.24      -50.14      -16.26      
495.1375    -2.21       -55.37      -51.31      -16.37      
495.19375   -2.17       -72.18      -47.47      -16.2       
495.25      -2.18       -54.22      -51.58      -16.39      
495.30625   -2.17       -62.39      -52.2       -16.21      
495.3625    -2.22       -53.51      -52.25      -16.27      
495.41875   -2.17       -64.26      -49.58      -16.3       
495.475     -2.2        -61.58      -51.79      -16.27      
495.53125   -2.19       -61.26      -49.26      -16.3       
495.5875    -2.2        -56.36      -55.18      -16.42      
495.64375   -2.16       -63.31      -53.7       -16.19      
495.7       -2.2        -61.36      -54.22      -16.46      
495.75625   -2.18       -68.38      -50.46      -16.23      
495.8125    -2.22       -54.0       -56.69      -16.39      
495.86875   -2.13       -65.18      -51.86      -16.22      
495.925     -2.18       -56.12      -54.25      -16.39      
495.98125   -2.19       -55.78      -58.65      -16.31      
496.0375    -2.2        -69.79      -52.0       -16.41      
496.09375   -2.14       -61.79      -52.15      -16.37      
496.15      -2.21       -61.68      -58.83      -16.36      
496.20625   -2.2        -59.97      -49.61      -16.26      
496.2625    -2.18       -56.92      -56.57      -16.46      
496.31875   -2.18       -56.84      -55.85      -16.27      
496.375     -2.21       -57.52      -52.98      -16.44      
496.43125   -2.14       -52.6       -58.52      -16.34      
496.4875    -2.18       -61.19      -51.93      -16.33      
496.54375   -2.11       -59.01      -52.36      -16.25      
496.6       -2.18       -53.81      -54.28      -16.48      
496.65625   -2.13       -59.22      -53.36      -16.19      
496.7125    -2.19       -55.05      -56.39      -16.46      
496.76875   -2.16       -60.55      -51.08      -16.26      
496.825     -2.21       -60.2       -54.19      -16.51      
496.88125   -2.17       -56.85      -52.6       -16.19      
496.9375    -2.22       -58.99      -63.44      -16.5       
496.99375   -2.15       -52.86      -55.98      -16.3       
497.05      -2.18       -51.8       -53.17      -16.47      
497.10625   -2.19       -65.18      -56.8       -16.13      
497.1625    -2.2        -62.17      -52.9       -16.52      
497.21875   -2.19       -65.85      -53.07      -16.24      
497.275     -2.21       -59.6       -55.06      -16.47      
497.33125   -2.16       -57.04      -64.3       -16.22      
497.3875    -2.17       -55.44      -52.61      -16.39      
497.44375   -2.15       -63.02      -53.33      -16.36      
497.5       -2.19       -59.84      -59.58      -16.39      
497.55625   -2.17       -58.19      -54.56      -16.25      
497.6125    -2.18       -62.55      -51.77      -16.47      
497.66875   -2.15       -64.58      -55.93      -16.2       
497.725     -2.17       -58.38      -54.94      -16.46      
497.78125   -2.17       -52.15      -59.13      -16.38      
497.8375    -2.15       -54.56      -57.68      -16.4       
497.89375   -2.15       -58.27      -61.94      -16.2       
497.95      -2.15       -66.34      -51.26      -16.43      
498.00625   -2.16       -54.22      -62.62      -16.33      
498.0625    -2.17       -59.19      -50.82      -16.5       
498.11875   -2.16       -64.47      -54.22      -16.27      
498.175     -2.15       -68.05      -57.83      -16.38      
498.23125   -2.15       -65.32      -66.32      -16.3       
498.2875    -2.18       -62.7       -52.69      -16.43      
498.34375   -2.19       -57.41      -61.11      -16.27      
498.4       -2.14       -56.8       -54.08      -16.3       
498.45625   -2.15       -59.16      -58.58      -16.2       
498.5125    -2.12       -64.02      -57.04      -16.41      
498.56875   -2.18       -73.89      -55.91      -16.27      
498.625     -2.18       -55.02      -58.34      -16.46      
498.68125   -2.17       -72.69      -56.51      -16.34      
498.7375    -2.16       -55.81      -58.96      -16.44      
498.79375   -2.17       -66.66      -64.39      -16.29      
498.85      -2.14       -54.14      -55.87      -16.43      
498.90625   -2.14       -55.57      -55.41      -16.29      
498.9625    -2.13       -63.74      -50.61      -16.35      
499.01875   -2.15       -59.57      -75.01      -16.28      
499.075     -2.15       -65.77      -56.58      -16.52      
499.13125   -2.15       -55.94      -59.63      -16.31      
499.1875    -2.19       -56.5       -54.3       -16.42      
499.24375   -2.12       -55.04      -59.27      -16.33      
499.3       -2.14       -67.73      -54.59      -16.44      
499.35625   -2.13       -53.63      -66.17      -16.37      
499.4125    -2.12       -54.64      -53.35      -16.44      
499.46875   -2.15       -54.21      -57.87      -16.19      
499.525     -2.14       -56.38      -56.95      -16.55      
499.58125   -2.12       -66.1       -58.62      -16.24      
499.6375    -2.15       -66.35      -57.14      -16.42      
499.69375   -2.16       -59.47      -55.63      -16.28      
499.75      -2.14       -62.14      -51.65      -16.38      
499.80625   -2.12       -59.92      -54.24      -16.25      
499.8625    -2.15       -59.94      -55.18      -16.38      
499.91875   -2.12       -70.18      -67.12      -16.3       
499.975     -2.16       -59.29      -54.8       -16.44      
500.03125   -2.16       -58.03      -67.13      -16.33      
500.0875    -2.14       -63.27      -50.9       -16.53      
500.14375   -2.11       -62.33      -55.36      -16.35      
500.2       -2.12       -58.22      -53.97      -16.51      
500.25625   -2.1        -52.86      -59.99      -16.35      
500.3125    -2.14       -56.4       -54.43      -16.36      
500.36875   -2.11       -58.36      -65.51      -16.36      
500.425     -2.18       -56.64      -52.82      -16.52      
500.48125   -2.13       -62.86      -62.59      -16.31      
500.5375    -2.11       -61.73      -51.95      -16.45      
500.59375   -2.12       -65.99      -55.67      -16.27      
500.65      -2.12       -59.96      -53.8       -16.48      
500.70625   -2.13       -60.86      -72.89      -16.36      
500.7625    -2.17       -64.6       -54.18      -16.5       
500.81875   -2.12       -57.21      -59.86      -16.32      
500.875     -2.17       -54.86      -51.66      -16.48      
500.93125   -2.11       -58.3       -72.74      -16.4       
500.9875    -2.15       -60.43      -56.63      -16.43      
501.04375   -2.09       -56.03      -60.31      -16.27      
501.1       -2.14       -79.98      -55.79      -16.41      
501.15625   -2.17       -55.2       -57.93      -16.29      
501.2125    -2.14       -62.32      -51.32      -16.41      
501.26875   -2.13       -62.93      -66.12      -16.37      
501.325     -2.09       -57.89      -60.65      -16.4       
501.38125   -2.14       -57.12      -66.09      -16.33      
501.4375    -2.14       -60.23      -58.24      -16.46      
501.49375   -2.13       -56.23      -64.45      -16.31      
501.55      -2.14       -56.59      -51.58      -16.37      
501.60625   -2.09       -54.25      -75.15      -16.37      
501.6625    -2.16       -64.86      -63.07      -16.45      
501.71875   -2.16       -53.18      -57.12      -16.4       
501.775     -2.18       -60.41      -53.34      -16.51      
501.83125   -2.12       -58.5       -55.46      -16.33      
501.8875    -2.14       -54.95      -59.38      -16.38      
501.94375   -2.17       -52.72      -65.52      -16.34      
502.0       -2.14       -71.39      -59.0       -16.5       
502.05625   -2.15       -73.7       -65.36      -16.46      
502.1125    -2.15       -63.23      -55.1       -16.49      
502.16875   -2.13       -65.03      -67.8       -16.27      
502.225     -2.18       -55.96      -51.85      -16.45      
502.28125   -2.14       -58.34      -62.76      -16.42      
502.3375    -2.16       -60.73      -60.8       -16.52      
502.39375   -2.16       -63.22      -55.67      -16.32      
502.45      -2.17       -62.96      -61.38      -16.48      
502.50625   -2.15       -58.95      -66.34      -16.43      
502.5625    -2.18       -63.95      -58.85      -16.29      
502.61875   -2.14       -59.47      -66.16      -16.38      
502.675     -2.16       -54.81      -65.61      -16.41      
502.73125   -2.15       -57.41      -55.1       -16.34      
502.7875    -2.12       -68.43      -54.14      -16.57      
502.84375   -2.16       -58.43      -66.67      -16.41      
502.9       -2.13       -58.18      -51.67      -16.48      
502.95625   -2.18       -72.16      -60.91      -16.33      
503.0125    -2.19       -53.57      -61.9       -16.48      
503.06875   -2.18       -63.74      -60.16      -16.46      
503.125     -2.16       -66.35      -56.67      -16.51      
503.18125   -2.16       -61.86      -62.01      -16.37      
503.2375    -2.18       -54.45      -62.51      -16.35      
503.29375   -2.19       -54.86      -69.27      -16.32      
503.35      -2.17       -68.99      -60.32      -16.43      
503.40625   -2.18       -60.51      -61.49      -16.37      
503.4625    -2.2        -66.29      -50.41      -16.54      
503.51875   -2.14       -60.83      -60.34      -16.44      
503.575     -2.19       -58.46      -59.47      -16.34      
503.63125   -2.19       -66.93      -62.36      -16.41      
503.6875    -2.21       -65.04      -55.46      -16.54      
503.74375   -2.16       -56.38      -65.36      -16.43      
503.8       -2.18       -56.67      -57.51      -16.5       
503.85625   -2.23       -56.1       -63.92      -16.44      
503.9125    -2.18       -62.56      -65.69      -16.55      
503.96875   -2.14       -52.65      -57.4       -16.34      
504.025     -2.19       -62.62      -58.72      -16.45      
504.08125   -2.19       -52.05      -59.71      -16.45      
504.1375    -2.23       -60.27      -62.41      -16.52      
504.19375   -2.17       -51.88      -62.97      -16.37      
504.25      -2.25       -64.29      -54.19      -16.45      
504.30625   -2.19       -53.78      -69.18      -16.51      
504.3625    -2.21       -66.85      -61.25      -16.43      
504.41875   -2.2        -62.61      -58.08      -16.42      
504.475     -2.25       -60.89      -54.2       -16.55      
504.53125   -2.2        -59.82      -61.31      -16.42      
504.5875    -2.21       -60.6       -66.21      -16.47      
504.64375   -2.25       -57.12      -67.53      -16.4       
504.7       -2.27       -56.9       -53.44      -16.46      
504.75625   -2.21       -62.83      -63.29      -16.47      
504.8125    -2.21       -57.1       -57.79      -16.43      
504.86875   -2.26       -63.84      -62.77      -16.52      
504.925     -2.24       -59.27      -55.51      -16.48      
504.98125   -2.24       -58.01      -56.0       -16.41      
505.0375    -2.24       -59.22      -62.73      -16.42      
505.09375   -2.25       -59.96      -61.38      -16.47      
505.15      -2.28       -57.76      -50.48      -16.37      
505.20625   -2.22       -56.47      -61.27      -16.5       
505.2625    -2.26       -60.23      -55.82      -16.43      
505.31875   -2.22       -55.21      -61.01      -16.57      
505.375     -2.28       -60.41      -56.23      -16.47      
505.43125   -2.25       -68.92      -65.36      -16.44      
505.4875    -2.26       -60.53      -51.89      -16.59      
505.54375   -2.27       -58.41      -68.19      -16.58      
505.6       -2.26       -71.39      -52.67      -16.55      
505.65625   -2.27       -60.14      -62.08      -16.65      
505.7125    -2.3        -59.24      -57.12      -16.55      
505.76875   -2.25       -69.23      -56.86      -16.47      
505.825     -2.28       -56.58      -53.95      -16.53      
505.88125   -2.31       -62.74      -77.07      -16.49      
505.9375    -2.3        -60.59      -56.83      -16.39      
505.99375   -2.27       -53.37      -65.8       -16.53      
506.05      -2.28       -55.32      -57.67      -16.47      
506.10625   -2.29       -55.45      -63.84      -16.5       
506.1625    -2.3        -54.39      -56.67      -16.44      
506.21875   -2.31       -56.19      -62.0       -16.45      
506.275     -2.32       -66.51      -56.25      -16.38      
506.33125   -2.31       -61.77      -61.72      -16.34      
506.3875    -2.35       -59.65      -62.12      -16.51      
506.44375   -2.33       -58.23      -65.86      -16.45      
506.5       -2.34       -67.39      -59.82      -16.56      
506.55625   -2.31       -56.11      -56.8       -16.53      
506.6125    -2.37       -61.3       -52.29      -16.49      
506.66875   -2.35       -56.32      -64.33      -16.58      
506.725     -2.38       -55.06      -58.09      -16.36      
506.78125   -2.35       -55.66      -64.06      -16.48      
506.8375    -2.41       -58.13      -54.09      -16.49      
506.89375   -2.39       -67.92      -71.93      -16.59      
506.95      -2.42       -57.12      -59.95      -16.52      
507.00625   -2.35       -64.24      -52.96      -16.52      
507.0625    -2.36       -67.3       -63.16      -16.52      
507.11875   -2.36       -64.64      -59.47      -16.48      
507.175     -2.36       -59.67      -55.78      -16.48      
507.23125   -2.35       -57.2       -73.84      -16.5       
507.2875    -2.36       -69.7       -61.92      -16.46      
507.34375   -2.34       -61.14      -59.4       -16.4       
507.4       -2.38       -57.78      -59.84      -16.44      
507.45625   -2.36       -53.94      -59.1       -16.55      
507.5125    -2.4        -55.99      -58.67      -16.52      
507.56875   -2.4        -60.99      -70.91      -16.58      
507.625     -2.4        -63.69      -53.59      -16.46      
507.68125   -2.4        -69.05      -59.5       -16.69      
507.7375    -2.44       -62.42      -55.31      -16.47      
507.79375   -2.42       -57.15      -52.86      -16.44      
507.85      -2.46       -58.66      -57.01      -16.45      
507.90625   -2.42       -67.07      -58.95      -16.66      
507.9625    -2.43       -60.27      -58.29      -16.54      
508.01875   -2.45       -60.13      -59.87      -16.53      
508.075     -2.5        -64.14      -57.18      -16.37      
508.13125   -2.45       -59.35      -67.78      -16.55      
508.1875    -2.42       -61.34      -58.62      -16.48      
508.24375   -2.45       -57.38      -59.78      -16.6       
508.3       -2.47       -53.91      -52.52      -16.45      
508.35625   -2.44       -73.61      -54.72      -16.58      
508.4125    -2.5        -58.3       -60.28      -16.5       
508.46875   -2.45       -56.73      -59.39      -16.53      
508.525     -2.49       -57.83      -53.77      -16.43      
508.58125   -2.5        -58.37      -60.09      -16.57      
508.6375    -2.47       -58.21      -61.83      -16.54      
508.69375   -2.45       -66.51      -54.73      -16.51      
508.75      -2.52       -56.52      -58.19      -16.48      
508.80625   -2.51       -70.77      -53.64      -16.54      
508.8625    -2.49       -65.19      -59.29      -16.62      
508.91875   -2.47       -65.77      -55.85      -16.66      
508.975     -2.47       -56.64      -57.25      -16.56      
509.03125   -2.47       -68.18      -58.84      -16.6       
509.0875    -2.52       -63.62      -63.48      -16.38      
509.14375   -2.51       -54.55      -60.52      -16.68      
509.2       -2.5        -61.21      -55.26      -16.5       
509.25625   -2.53       -64.52      -59.54      -16.66      
509.3125    -2.53       -56.26      -70.7       -16.59      
509.36875   -2.53       -66.92      -53.69      -16.62      
509.425     -2.52       -56.43      -56.9       -16.54      
509.48125   -2.51       -61.42      -55.04      -16.67      
509.5375    -2.52       -57.64      -60.78      -16.48      
509.59375   -2.47       -60.53      -61.88      -16.59      
509.65      -2.49       -56.41      -59.6       -16.5       
509.70625   -2.52       -63.64      -59.91      -16.62      
509.7625    -2.5        -59.08      -56.6       -16.58      
509.81875   -2.52       -66.15      -54.22      -16.59      
509.875     -2.52       -55.76      -60.87      -16.55      
509.93125   -2.51       -66.66      -66.66      -16.61      
509.9875    -2.58       -65.09      -63.5       -16.52      
510.04375   -2.58       -54.01      -51.53      -16.57      
510.1       -2.57       -58.13      -59.39      -16.48      
510.15625   -2.58       -67.27      -62.39      -16.61      
510.2125    -2.53       -58.6       -61.05      -16.25      
510.26875   -2.56       -54.63      -56.94      -16.61      
510.325     -2.58       -64.03      -60.71      -16.49      
510.38125   -2.54       -57.86      -55.52      -16.61      
510.4375    -2.54       -56.08      -62.67      -16.47      
510.49375   -2.52       -57.99      -59.41      -16.66      
510.55      -2.56       -60.92      -59.03      -16.45      
510.60625   -2.55       -62.3       -54.26      -16.58      
510.6625    -2.56       -63.13      -64.03      -16.49      
510.71875   -2.58       -57.62      -64.02      -16.62      
510.775     -2.58       -53.63      -64.03      -16.58      
510.83125   -2.54       -59.59      -67.83      -16.69      
510.8875    -2.57       -59.25      -64.65      -16.52      
510.94375   -2.55       -58.87      -68.86      -16.62      
511.0       -2.56       -54.02      -52.17      -16.5       
511.05625   -2.51       -59.97      -53.77      -16.59      
511.1125    -2.56       -56.84      -62.23      -16.5       
511.16875   -2.54       -57.06      -70.27      -16.57      
511.225     -2.56       -54.87      -59.81      -16.47      
511.28125   -2.59       -58.79      -56.25      -16.71      
511.3375    -2.59       -62.82      -64.99      -16.47      
511.39375   -2.57       -64.19      -54.45      -16.58      
511.45      -2.57       -55.82      -61.79      -16.51      
511.50625   -2.53       -56.3       -63.34      -16.65      
511.5625    -2.56       -57.71      -61.38      -16.57      
511.61875   -2.57       -58.21      -55.55      -16.6       
511.675     -2.57       -60.08      -56.31      -16.53      
511.73125   -2.53       -56.09      -54.19      -16.7       
511.7875    -2.54       -57.48      -60.82      -16.5       
511.84375   -2.51       -68.35      -61.55      -16.65      
511.9       -2.53       -68.6       -60.71      -16.53      
511.95625   -2.54       -55.26      -57.67      -16.77      
512.0125    -2.55       -57.52      -57.64      -16.68      
512.06875   -2.55       -66.86      -58.09      -16.58      
512.125     -2.55       -57.51      -63.57      -16.48      
512.18125   -2.56       -62.72      -70.19      -16.78      
512.2375    -2.54       -54.98      -56.21      -16.57      
512.29375   -2.55       -54.94      -72.82      -16.64      
512.35      -2.55       -57.81      -59.75      -16.46      
512.40625   -2.53       -80.78      -57.41      -16.56      
512.4625    -2.57       -58.02      -57.32      -16.61      
512.51875   -2.55       -63.38      -59.05      -16.59      
512.575     -2.58       -60.87      -55.72      -16.52      
512.63125   -2.54       -57.4       -57.29      -16.66      
512.6875    -2.59       -73.1       -56.6       -16.6       
512.74375   -2.57       -58.62      -79.49      -16.62      
512.8       -2.6        -61.21      -62.71      -16.58      
512.85625   -2.59       -78.17      -60.51      -16.64      
512.9125    -2.62       -65.34      -63.97      -16.56      
512.96875   -2.58       -60.35      -59.63      -16.68      
513.025     -2.57       -63.3       -62.69      -16.54      
513.08125   -2.55       -63.11      -61.64      -16.74      
513.1375    -2.55       -65.09      -68.97      -16.56      
513.19375   -2.54       -55.5       -60.78      -16.84      
513.25      -2.51       -61.1       -56.52      -16.48      
513.30625   -2.54       -58.55      -57.9       -16.69      
513.3625    -2.54       -57.91      -57.56      -16.55      
513.41875   -2.52       -54.03      -58.35      -16.6       
513.475     -2.52       -58.36      -58.84      -16.53      
513.53125   -2.56       -54.65      -57.15      -16.79      
513.5875    -2.55       -57.86      -63.02      -16.55      
513.64375   -2.52       -53.13      -57.36      -16.65      
513.7       -2.51       -57.78      -61.54      -16.51      
513.75625   -2.56       -66.21      -51.51      -16.73      
513.8125    -2.55       -57.95      -59.28      -16.58      
513.86875   -2.56       -62.67      -57.01      -16.72      
513.925     -2.56       -66.94      -56.59      -16.52      
513.98125   -2.56       -74.8       -55.23      -16.68      
514.0375    -2.59       -59.73      -62.15      -16.51      
514.09375   -2.54       -61.42      -63.84      -16.64      
514.15      -2.59       -70.99      -64.28      -16.55      
514.20625   -2.58       -66.09      -54.52      -16.68      
514.2625    -2.59       -59.02      -59.74      -16.46      
514.31875   -2.53       -80.07      -51.3       -16.73      
514.375     -2.5        -60.67      -57.39      -16.5       
514.43125   -2.5        -56.47      -61.17      -16.75      
514.4875    -2.53       -62.28      -63.62      -16.6       
514.54375   -2.5        -57.25      -61.93      -16.54      
514.6       -2.52       -58.93      -64.25      -16.4       
514.65625   -2.55       -63.79      -58.75      -16.76      
514.7125    -2.54       -62.95      -63.27      -16.55      
514.76875   -2.54       -61.19      -54.88      -16.78      
514.825     -2.55       -59.77      -51.93      -16.57      
514.88125   -2.54       -62.06      -78.66      -16.74      
514.9375    -2.54       -62.55      -54.48      -16.41      
514.99375   -2.56       -59.9       -55.38      -16.63      
515.05      -2.57       -60.06      -53.88      -16.64      
515.10625   -2.56       -69.76      -62.61      -16.8       
515.1625    -2.57       -68.13      -69.97      -16.52      
515.21875   -2.57       -57.11      -62.23      -16.61      
515.275     -2.52       -58.88      -57.43      -16.51      
515.33125   -2.51       -55.84      -58.69      -16.75      
515.3875    -2.54       -63.04      -63.85      -16.59      
515.44375   -2.54       -60.09      -56.58      -16.63      
515.5       -2.55       -67.03      -59.51      -16.69      
515.55625   -2.53       -57.95      -66.86      -16.67      
515.6125    -2.52       -70.51      -61.7       -16.54      
515.66875   -2.53       -59.99      -63.82      -16.78      
515.725     -2.54       -66.5       -55.87      -16.63      
515.78125   -2.5        -54.84      -58.86      -16.61      
515.8375    -2.56       -55.06      -58.92      -16.55      
515.89375   -2.51       -58.71      -58.05      -16.76      
515.95      -2.57       -58.19      -66.67      -16.61      
516.00625   -2.56       -57.03      -65.6       -16.66      
516.0625    -2.52       -58.82      -57.24      -16.52      
516.11875   -2.5        -60.24      -65.12      -16.73      
516.175     -2.54       -70.72      -61.88      -16.57      
516.23125   -2.56       -59.21      -58.58      -16.65      
516.2875    -2.53       -70.66      -57.36      -16.51      
516.34375   -2.54       -57.62      -59.65      -16.73      
516.4       -2.53       -61.3       -55.88      -16.6       
516.45625   -2.55       -60.04      -63.07      -16.67      
516.5125    -2.57       -62.14      -55.74      -16.56      
516.56875   -2.49       -51.44      -67.23      -16.63      
516.625     -2.52       -63.6       -63.29      -16.59      
516.68125   -2.55       -54.86      -56.09      -16.72      
516.7375    -2.51       -61.99      -72.61      -16.62      
516.79375   -2.52       -57.15      -64.43      -16.75      
516.85      -2.5        -59.49      -56.73      -16.69      
516.90625   -2.51       -64.71      -60.18      -16.71      
516.9625    -2.45       -55.85      -65.02      -16.6       
517.01875   -2.49       -53.48      -58.86      -16.82      
517.075     -2.47       -58.08      -62.89      -16.61      
517.13125   -2.49       -68.41      -62.85      -16.68      
517.1875    -2.45       -64.03      -61.04      -16.55      
517.24375   -2.51       -56.42      -56.11      -16.67      
517.3       -2.49       -75.22      -56.32      -16.57      
517.35625   -2.47       -56.47      -58.13      -16.71      
517.4125    -2.54       -53.61      -58.92      -16.69      
517.46875   -2.49       -61.24      -56.45      -16.71      
517.525     -2.55       -57.91      -58.68      -16.49      
517.58125   -2.5        -62.14      -53.24      -16.65      
517.6375    -2.54       -57.38      -52.49      -16.63      
517.69375   -2.57       -60.5       -71.98      -16.71      
517.75      -2.54       -60.41      -58.22      -16.64      
517.80625   -2.56       -71.41      -58.06      -16.69      
517.8625    -2.54       -60.57      -58.78      -16.62      
517.91875   -2.53       -60.73      -70.19      -16.58      
517.975     -2.55       -60.98      -69.77      -16.5       
518.03125   -2.52       -62.18      -58.47      -16.76      
518.0875    -2.55       -63.43      -64.23      -16.62      
518.14375   -2.48       -55.0       -61.05      -16.68      
518.2       -2.48       -57.25      -60.81      -16.66      
518.25625   -2.44       -65.45      -58.54      -16.67      
518.3125    -2.42       -57.49      -58.26      -16.62      
518.36875   -2.51       -67.32      -60.96      -16.75      
518.425     -2.48       -60.32      -55.15      -16.56      
518.48125   -2.48       -57.67      -57.32      -16.7       
518.5375    -2.51       -62.66      -64.18      -16.63      
518.59375   -2.47       -57.48      -56.06      -16.68      
518.65      -2.51       -62.04      -54.46      -16.58      
518.70625   -2.51       -60.66      -61.81      -16.88      
518.7625    -2.48       -54.84      -56.93      -16.59      
518.81875   -2.51       -56.52      -63.43      -16.69      
518.875     -2.52       -56.81      -56.63      -16.62      
518.93125   -2.51       -62.33      -65.24      -16.79      
518.9875    -2.54       -58.91      -55.67      -16.64      
519.04375   -2.5        -55.77      -69.97      -16.67      
519.1       -2.5        -58.67      -81.87      -16.67      
519.15625   -2.48       -55.31      -55.16      -16.73      
519.2125    -2.56       -64.26      -60.22      -16.52      
519.26875   -2.49       -54.04      -64.43      -16.7       
519.325     -2.53       -54.91      -60.78      -16.62      
519.38125   -2.51       -54.04      -62.8       -16.69      
519.4375    -2.52       -59.88      -53.42      -16.71      
519.49375   -2.52       -64.2       -59.07      -16.75      
519.55      -2.5        -55.27      -59.82      -16.66      
519.60625   -2.48       -59.44      -60.84      -16.75      
519.6625    -2.52       -67.01      -55.51      -16.71      
519.71875   -2.5        -55.18      -78.25      -16.7       
519.775     -2.5        -57.08      -61.88      -16.47      
519.83125   -2.47       -66.17      -59.31      -16.72      
519.8875    -2.47       -52.11      -81.7       -16.6       
519.94375   -2.45       -57.97      -64.32      -16.65      
520.0       -2.46       -66.2       -57.94      -16.56      
