TESTE DA PLACA: RFFE

Operador: Fernando
Numero de Serie: 11111111
RFFE Software Version: V2_0002
RFFE - IP: 10.0.18.9
RFFE - Communication: OK
Start Time: 23-02-2017 20:52:50
End Time: 23-02-2017 20:52:50
Duracao do Teste: 6.609 min

Set-up Info:
Network Analyzer Model: E5062A
Network Analyzer - IP: 10.0.18.20
Network Analyzer - Communication: OK
Waveform Generator Model: 33500B
Waveform Generator - IP: 10.0.18.13
Waveform Generator - Communication: OK
RF Switch Model: RC-2SP4T-A18
RF Switch1 - IP: 10.0.18.12
RF Switch1 - Communication: OK
RF Switch2 - IP: 10.0.18.15
RF Switch2 - Communication: OK
DC Power Supply Model: 6626A

RESULTS:

RFFE Ch: 2-2

Freq [MHz]  S11 [dB]    S12 [dB]    S21 [dB]    S22 [dB]    
430.0       -2.64       -57.71      -43.79      -17.48      
430.05625   -2.62       -56.61      -41.46      -17.63      
430.1125    -2.57       -57.48      -44.47      -17.51      
430.16875   -2.58       -56.57      -41.54      -17.54      
430.225     -2.63       -57.78      -42.9       -17.36      
430.28125   -2.65       -54.82      -39.84      -17.64      
430.3375    -2.62       -58.27      -43.55      -17.52      
430.39375   -2.63       -59.47      -41.29      -17.65      
430.45      -2.6        -55.22      -43.66      -17.46      
430.50625   -2.64       -59.72      -41.9       -17.47      
430.5625    -2.59       -61.19      -43.75      -17.31      
430.61875   -2.64       -61.42      -42.41      -17.53      
430.675     -2.64       -52.43      -44.17      -17.52      
430.73125   -2.66       -57.12      -42.22      -17.48      
430.7875    -2.64       -59.41      -43.29      -17.58      
430.84375   -2.64       -58.04      -43.05      -17.67      
430.9       -2.65       -57.3       -45.1       -17.49      
430.95625   -2.68       -57.19      -43.22      -17.61      
431.0125    -2.69       -55.63      -44.86      -17.5       
431.06875   -2.69       -56.91      -43.42      -17.52      
431.125     -2.65       -59.09      -44.6       -17.46      
431.18125   -2.67       -53.47      -43.31      -17.48      
431.2375    -2.68       -56.66      -44.09      -17.49      
431.29375   -2.64       -54.93      -42.73      -17.51      
431.35      -2.61       -59.31      -44.61      -17.45      
431.40625   -2.65       -69.81      -44.74      -17.57      
431.4625    -2.64       -59.45      -45.62      -17.49      
431.51875   -2.64       -57.81      -43.12      -17.39      
431.575     -2.66       -58.5       -44.77      -17.39      
431.63125   -2.69       -52.25      -41.2       -17.37      
431.6875    -2.67       -56.12      -45.24      -17.39      
431.74375   -2.63       -56.86      -43.74      -17.54      
431.8       -2.7        -74.65      -45.48      -17.45      
431.85625   -2.69       -66.06      -44.21      -17.48      
431.9125    -2.65       -58.81      -48.11      -17.39      
431.96875   -2.74       -60.5       -41.77      -17.5       
432.025     -2.74       -53.82      -45.85      -17.35      
432.08125   -2.69       -54.44      -42.03      -17.63      
432.1375    -2.67       -52.65      -45.04      -17.53      
432.19375   -2.7        -72.11      -42.03      -17.56      
432.25      -2.7        -57.55      -44.98      -17.43      
432.30625   -2.74       -60.01      -42.46      -17.35      
432.3625    -2.7        -65.44      -43.56      -17.39      
432.41875   -2.76       -56.07      -43.13      -17.49      
432.475     -2.72       -59.26      -42.87      -17.47      
432.53125   -2.75       -61.78      -41.69      -17.41      
432.5875    -2.7        -59.96      -43.73      -17.42      
432.64375   -2.73       -59.13      -41.24      -17.42      
432.7       -2.72       -52.59      -42.59      -17.42      
432.75625   -2.73       -61.5       -41.13      -17.43      
432.8125    -2.7        -57.12      -42.56      -17.37      
432.86875   -2.75       -63.8       -40.87      -17.46      
432.925     -2.68       -54.26      -43.9       -17.46      
432.98125   -2.75       -60.15      -40.32      -17.52      
433.0375    -2.71       -60.66      -42.84      -17.41      
433.09375   -2.73       -60.69      -42.09      -17.4       
433.15      -2.75       -58.02      -43.43      -17.31      
433.20625   -2.78       -60.89      -41.78      -17.36      
433.2625    -2.77       -58.91      -41.49      -17.44      
433.31875   -2.78       -58.48      -42.13      -17.35      
433.375     -2.8        -56.13      -42.23      -17.56      
433.43125   -2.85       -60.65      -40.93      -17.42      
433.4875    -2.86       -68.67      -43.7       -17.33      
433.54375   -2.85       -65.32      -45.19      -17.45      
433.6       -2.81       -54.17      -45.11      -17.46      
433.65625   -2.85       -54.62      -42.92      -17.45      
433.7125    -2.8        -57.95      -44.02      -17.36      
433.76875   -2.81       -60.18      -46.65      -17.34      
433.825     -2.81       -59.11      -45.14      -17.42      
433.88125   -2.82       -56.88      -44.92      -17.38      
433.9375    -2.83       -50.84      -47.81      -17.47      
433.99375   -2.77       -63.41      -48.29      -17.55      
434.05      -2.77       -58.99      -45.71      -17.43      
434.10625   -2.77       -58.25      -44.56      -17.41      
434.1625    -2.81       -66.03      -45.54      -17.45      
434.21875   -2.8        -53.91      -44.45      -17.4       
434.275     -2.73       -65.08      -46.36      -17.5       
434.33125   -2.81       -59.1       -45.12      -17.26      
434.3875    -2.75       -63.88      -45.64      -17.42      
434.44375   -2.75       -53.6       -46.4       -17.41      
434.5       -2.74       -70.57      -48.08      -17.42      
434.55625   -2.8        -59.68      -45.37      -17.32      
434.6125    -2.75       -68.3       -46.65      -17.52      
434.66875   -2.79       -60.78      -44.19      -17.37      
434.725     -2.79       -63.21      -44.3       -17.38      
434.78125   -2.81       -62.1       -44.92      -17.39      
434.8375    -2.8        -59.32      -45.97      -17.46      
434.89375   -2.79       -63.76      -43.97      -17.38      
434.95      -2.77       -63.77      -45.3       -17.47      
435.00625   -2.75       -55.74      -42.78      -17.43      
435.0625    -2.75       -60.14      -45.52      -17.44      
435.11875   -2.8        -52.11      -42.54      -17.41      
435.175     -2.71       -59.36      -44.69      -17.46      
435.23125   -2.74       -65.63      -42.64      -17.42      
435.2875    -2.76       -62.87      -44.88      -17.53      
435.34375   -2.74       -57.99      -42.56      -17.38      
435.4       -2.7        -59.34      -43.81      -17.46      
435.45625   -2.73       -54.56      -41.48      -17.53      
435.5125    -2.7        -56.26      -42.45      -17.42      
435.56875   -2.73       -62.69      -42.74      -17.42      
435.625     -2.69       -57.27      -41.86      -17.36      
435.68125   -2.74       -54.5       -41.32      -17.34      
435.7375    -2.74       -56.26      -42.17      -17.39      
435.79375   -2.78       -59.43      -41.45      -17.17      
435.85      -2.72       -80.02      -43.73      -17.44      
435.90625   -2.72       -53.07      -42.65      -17.33      
435.9625    -2.73       -63.61      -42.14      -17.33      
436.01875   -2.76       -60.97      -43.3       -17.37      
436.075     -2.76       -55.01      -44.2       -17.53      
436.13125   -2.8        -55.26      -46.45      -17.31      
436.1875    -2.8        -68.6       -47.33      -17.44      
436.24375   -2.85       -64.11      -49.58      -17.31      
436.3       -2.85       -66.23      -50.67      -17.58      
436.35625   -2.83       -58.75      -51.81      -17.34      
436.4125    -2.81       -62.76      -56.04      -17.43      
436.46875   -2.84       -71.64      -52.52      -17.38      
436.525     -2.87       -60.6       -50.66      -17.49      
436.58125   -2.89       -62.17      -55.37      -17.4       
436.6375    -2.88       -54.88      -59.9       -17.32      
436.69375   -2.92       -58.31      -52.5       -17.31      
436.75      -2.88       -52.63      -52.59      -17.39      
436.80625   -2.92       -67.02      -50.82      -17.38      
436.8625    -2.9        -56.56      -51.88      -17.43      
436.91875   -2.96       -60.84      -50.96      -17.31      
436.975     -2.94       -59.93      -49.7       -17.51      
437.03125   -2.99       -62.27      -49.26      -17.43      
437.0875    -2.96       -54.17      -47.14      -17.44      
437.14375   -3.01       -63.54      -47.19      -17.35      
437.2       -2.98       -58.26      -53.26      -17.45      
437.25625   -3.03       -60.84      -46.28      -17.34      
437.3125    -3.03       -53.61      -46.44      -17.43      
437.36875   -3.02       -62.25      -45.31      -17.34      
437.425     -3.08       -60.48      -46.28      -17.51      
437.48125   -3.07       -59.45      -44.08      -17.39      
437.5375    -3.02       -60.27      -46.4       -17.38      
437.59375   -3.0        -59.95      -45.23      -17.34      
437.65      -3.01       -55.57      -45.24      -17.49      
437.70625   -3.01       -62.03      -44.47      -17.48      
437.7625    -2.93       -70.51      -46.5       -17.36      
437.81875   -2.97       -57.58      -43.24      -17.27      
437.875     -2.93       -59.05      -45.46      -17.39      
437.93125   -2.9        -60.42      -44.85      -17.16      
437.9875    -2.83       -57.8       -43.93      -17.51      
438.04375   -2.87       -64.46      -45.58      -17.21      
438.1       -2.85       -60.81      -42.61      -17.24      
438.15625   -2.89       -65.58      -45.03      -17.24      
438.2125    -2.83       -60.1       -43.61      -17.44      
438.26875   -2.8        -59.69      -42.48      -17.32      
438.325     -2.81       -52.65      -44.25      -17.37      
438.38125   -2.81       -66.51      -45.22      -17.45      
438.4375    -2.8        -56.39      -44.4       -17.48      
438.49375   -2.73       -61.11      -42.57      -17.18      
438.55      -2.76       -55.58      -43.6       -17.39      
438.60625   -2.8        -59.03      -42.92      -17.29      
438.6625    -2.79       -58.14      -45.94      -17.43      
438.71875   -2.79       -62.69      -45.46      -17.29      
438.775     -2.78       -57.02      -43.42      -17.43      
438.83125   -2.89       -62.99      -42.64      -17.36      
438.8875    -2.8        -60.68      -44.06      -17.39      
438.94375   -2.83       -56.28      -44.23      -17.34      
439.0       -2.79       -60.67      -44.88      -17.39      
439.05625   -2.84       -57.62      -43.69      -17.29      
439.1125    -2.77       -60.12      -46.28      -17.41      
439.16875   -2.77       -55.9       -47.18      -17.33      
439.225     -2.78       -64.62      -43.09      -17.42      
439.28125   -2.75       -55.52      -45.61      -17.27      
439.3375    -2.78       -58.44      -44.16      -17.36      
439.39375   -2.81       -53.59      -41.65      -17.27      
439.45      -2.83       -56.88      -42.55      -17.46      
439.50625   -2.82       -54.15      -42.78      -17.29      
439.5625    -2.85       -54.07      -44.43      -17.37      
439.61875   -2.85       -57.7       -45.49      -17.3       
439.675     -2.84       -55.38      -44.02      -17.42      
439.73125   -2.89       -54.76      -43.6       -17.24      
439.7875    -2.92       -61.11      -42.15      -17.52      
439.84375   -2.97       -51.61      -45.44      -17.36      
439.9       -2.9        -61.6       -43.39      -17.51      
439.95625   -2.97       -64.0       -44.23      -17.22      
440.0125    -2.93       -60.67      -43.5       -17.33      
440.06875   -2.99       -73.04      -45.09      -17.18      
440.125     -2.96       -52.83      -46.13      -17.43      
440.18125   -3.02       -62.83      -44.2       -17.28      
440.2375    -3.03       -68.13      -42.98      -17.41      
440.29375   -3.03       -59.84      -41.34      -17.36      
440.35      -3.04       -62.33      -42.3       -17.37      
440.40625   -3.02       -74.79      -42.49      -17.22      
440.4625    -3.03       -57.87      -42.91      -17.51      
440.51875   -3.08       -60.42      -43.21      -17.3       
440.575     -3.02       -59.93      -43.08      -17.48      
440.63125   -2.98       -62.27      -42.65      -17.33      
440.6875    -2.97       -68.52      -41.78      -17.35      
440.74375   -2.98       -52.95      -42.2       -17.33      
440.8       -3.01       -60.76      -42.61      -17.47      
440.85625   -3.02       -64.4       -41.66      -17.38      
440.9125    -2.97       -54.39      -42.19      -17.29      
440.96875   -3.08       -57.16      -41.74      -17.32      
441.025     -3.0        -54.71      -41.87      -17.4       
441.08125   -3.03       -54.0       -42.46      -17.24      
441.1375    -3.02       -59.04      -42.27      -17.42      
441.19375   -3.0        -62.61      -42.49      -17.35      
441.25      -2.97       -66.25      -40.96      -17.44      
441.30625   -3.01       -71.74      -41.74      -17.32      
441.3625    -2.99       -62.63      -40.43      -17.27      
441.41875   -2.99       -59.54      -42.19      -17.31      
441.475     -2.96       -58.43      -41.09      -17.51      
441.53125   -2.91       -57.44      -42.73      -17.24      
441.5875    -2.93       -64.42      -41.17      -17.53      
441.64375   -2.91       -58.76      -42.16      -17.31      
441.7       -2.84       -64.31      -41.38      -17.45      
441.75625   -2.9        -57.44      -43.94      -17.26      
441.8125    -2.88       -61.07      -42.77      -17.26      
441.86875   -2.83       -56.27      -42.71      -17.35      
441.925     -2.82       -52.08      -41.77      -17.41      
441.98125   -2.83       -54.02      -41.54      -17.23      
442.0375    -2.81       -65.87      -41.6       -17.36      
442.09375   -2.77       -76.6       -43.5       -17.29      
442.15      -2.79       -60.8       -41.25      -17.45      
442.20625   -2.77       -55.9       -42.8       -17.26      
442.2625    -2.75       -69.58      -41.56      -17.34      
442.31875   -2.75       -55.48      -42.69      -17.22      
442.375     -2.79       -57.43      -41.08      -17.45      
442.43125   -2.81       -76.09      -43.2       -17.23      
442.4875    -2.78       -59.7       -40.16      -17.31      
442.54375   -2.79       -59.48      -42.47      -17.27      
442.6       -2.77       -57.3       -40.35      -17.49      
442.65625   -2.78       -54.78      -42.57      -17.2       
442.7125    -2.77       -51.41      -40.8       -17.3       
442.76875   -2.76       -62.24      -44.44      -17.16      
442.825     -2.72       -57.07      -41.95      -17.39      
442.88125   -2.77       -66.78      -42.69      -17.22      
442.9375    -2.74       -64.83      -40.43      -17.48      
442.99375   -2.73       -54.81      -42.68      -17.26      
443.05      -2.72       -62.29      -41.48      -17.31      
443.10625   -2.73       -57.59      -43.77      -17.29      
443.1625    -2.73       -64.67      -42.68      -17.47      
443.21875   -2.77       -57.04      -43.33      -17.35      
443.275     -2.71       -59.79      -42.22      -17.34      
443.33125   -2.72       -53.41      -43.15      -17.4       
443.3875    -2.72       -58.36      -41.44      -17.22      
443.44375   -2.73       -62.95      -43.33      -17.38      
443.5       -2.73       -51.58      -41.95      -17.33      
443.55625   -2.74       -61.08      -44.16      -17.3       
443.6125    -2.74       -60.44      -41.64      -17.38      
443.66875   -2.78       -63.27      -43.81      -17.14      
443.725     -2.75       -62.97      -40.46      -17.25      
443.78125   -2.77       -56.55      -42.69      -17.32      
443.8375    -2.76       -56.12      -41.3       -17.31      
443.89375   -2.77       -60.61      -42.96      -17.19      
443.95      -2.78       -56.9       -40.98      -17.26      
444.00625   -2.8        -65.67      -44.16      -17.39      
444.0625    -2.81       -51.36      -40.33      -17.34      
444.11875   -2.82       -65.14      -43.75      -17.31      
444.175     -2.85       -69.2       -42.01      -17.37      
444.23125   -2.83       -62.41      -43.31      -17.28      
444.2875    -2.86       -59.05      -42.34      -17.34      
444.34375   -2.83       -59.65      -43.46      -17.09      
444.4       -2.84       -56.94      -42.61      -17.33      
444.45625   -2.85       -54.57      -43.44      -17.4       
444.5125    -2.85       -63.98      -41.42      -17.23      
444.56875   -2.81       -56.85      -45.07      -17.37      
444.625     -2.77       -60.09      -43.43      -17.23      
444.68125   -2.77       -85.25      -43.37      -17.31      
444.7375    -2.78       -58.32      -43.39      -17.32      
444.79375   -2.76       -58.47      -45.55      -17.34      
444.85      -2.73       -58.04      -41.66      -17.31      
444.90625   -2.75       -62.11      -44.41      -17.27      
444.9625    -2.74       -63.14      -43.99      -17.27      
445.01875   -2.7        -56.56      -45.11      -17.24      
445.075     -2.71       -67.88      -42.31      -17.31      
445.13125   -2.72       -54.38      -45.36      -17.23      
445.1875    -2.73       -58.3       -41.76      -17.28      
445.24375   -2.66       -66.1       -43.39      -17.34      
445.3       -2.66       -53.89      -41.8       -17.27      
445.35625   -2.71       -61.72      -44.52      -17.28      
445.4125    -2.69       -59.11      -42.7       -17.21      
445.46875   -2.6        -56.04      -44.64      -17.28      
445.525     -2.63       -65.81      -43.31      -17.17      
445.58125   -2.58       -54.65      -43.96      -17.21      
445.6375    -2.61       -68.35      -42.58      -17.3       
445.69375   -2.59       -76.2       -42.62      -17.23      
445.75      -2.6        -61.73      -41.84      -17.26      
445.80625   -2.59       -68.85      -44.37      -17.11      
445.8625    -2.6        -54.46      -42.26      -17.35      
445.91875   -2.59       -54.4       -42.56      -17.19      
445.975     -2.52       -60.57      -40.75      -17.17      
446.03125   -2.59       -56.18      -44.65      -17.28      
446.0875    -2.58       -61.14      -41.49      -17.23      
446.14375   -2.54       -58.21      -43.48      -17.24      
446.2       -2.58       -52.28      -41.34      -17.37      
446.25625   -2.54       -73.38      -43.72      -17.29      
446.3125    -2.6        -51.6       -41.51      -17.33      
446.36875   -2.6        -63.85      -43.12      -17.2       
446.425     -2.56       -57.58      -40.64      -17.18      
446.48125   -2.55       -58.29      -43.07      -17.28      
446.5375    -2.58       -57.87      -40.99      -17.26      
446.59375   -2.61       -57.36      -41.81      -17.28      
446.65      -2.58       -59.55      -40.93      -17.21      
446.70625   -2.52       -61.83      -43.41      -17.31      
446.7625    -2.62       -54.99      -41.02      -17.37      
446.81875   -2.58       -72.46      -45.18      -17.31      
446.875     -2.58       -62.84      -42.89      -17.21      
446.93125   -2.56       -55.5       -41.98      -17.32      
446.9875    -2.57       -58.06      -41.54      -17.24      
447.04375   -2.59       -61.28      -43.99      -17.17      
447.1       -2.56       -56.74      -41.5       -17.26      
447.15625   -2.6        -88.0       -42.41      -17.28      
447.2125    -2.59       -59.91      -42.1       -17.32      
447.26875   -2.61       -54.54      -41.97      -17.26      
447.325     -2.61       -56.61      -41.93      -17.16      
447.38125   -2.59       -57.19      -43.33      -17.26      
447.4375    -2.59       -56.27      -42.04      -17.25      
447.49375   -2.58       -54.83      -42.43      -17.17      
447.55      -2.62       -60.88      -42.08      -17.29      
447.60625   -2.57       -55.4       -42.41      -17.29      
447.6625    -2.61       -57.43      -41.02      -17.21      
447.71875   -2.61       -62.48      -44.73      -17.17      
447.775     -2.61       -52.67      -39.87      -17.3       
447.83125   -2.59       -52.82      -43.06      -17.43      
447.8875    -2.58       -70.02      -40.34      -17.23      
447.94375   -2.56       -68.09      -42.69      -17.2       
448.0       -2.61       -64.78      -41.31      -17.15      
448.05625   -2.58       -72.48      -41.95      -17.24      
448.1125    -2.57       -60.12      -39.66      -17.17      
448.16875   -2.56       -62.1       -41.77      -17.26      
448.225     -2.55       -72.77      -40.9       -17.14      
448.28125   -2.55       -59.96      -42.35      -17.27      
448.3375    -2.52       -58.56      -40.88      -17.1       
448.39375   -2.54       -70.78      -42.69      -17.4       
448.45      -2.54       -54.18      -39.64      -17.23      
448.50625   -2.51       -56.05      -42.85      -17.3       
448.5625    -2.55       -60.57      -41.5       -17.15      
448.61875   -2.49       -56.26      -42.03      -17.37      
448.675     -2.55       -60.86      -40.16      -17.24      
448.73125   -2.54       -57.06      -42.76      -17.29      
448.7875    -2.52       -55.47      -40.05      -17.26      
448.84375   -2.52       -63.53      -41.81      -17.28      
448.9       -2.55       -59.88      -40.35      -17.31      
448.95625   -2.51       -64.81      -41.37      -17.3       
449.0125    -2.53       -59.65      -40.73      -17.19      
449.06875   -2.57       -57.97      -41.29      -17.26      
449.125     -2.53       -60.71      -40.46      -17.19      
449.18125   -2.49       -64.08      -42.98      -17.24      
449.2375    -2.54       -63.36      -42.1       -17.23      
449.29375   -2.51       -65.49      -42.45      -17.33      
449.35      -2.53       -60.79      -40.62      -17.25      
449.40625   -2.54       -51.58      -42.89      -17.32      
449.4625    -2.52       -77.08      -41.52      -17.19      
449.51875   -2.48       -69.13      -40.78      -17.21      
449.575     -2.54       -71.62      -41.62      -17.09      
449.63125   -2.52       -56.22      -40.57      -17.17      
449.6875    -2.52       -61.4       -41.52      -17.22      
449.74375   -2.53       -57.43      -42.09      -17.2       
449.8       -2.56       -60.83      -40.37      -17.19      
449.85625   -2.51       -55.93      -41.14      -17.22      
449.9125    -2.5        -55.28      -40.04      -17.15      
449.96875   -2.51       -52.74      -40.64      -17.25      
450.025     -2.53       -56.6       -40.13      -17.14      
450.08125   -2.5        -68.69      -40.22      -17.32      
450.1375    -2.52       -65.67      -40.2       -17.09      
450.19375   -2.56       -59.92      -41.74      -17.43      
450.25      -2.49       -63.63      -40.23      -17.23      
450.30625   -2.52       -53.61      -39.71      -17.26      
450.3625    -2.57       -59.78      -40.06      -17.2       
450.41875   -2.54       -61.2       -39.39      -17.27      
450.475     -2.55       -61.01      -40.5       -17.27      
450.53125   -2.51       -55.97      -40.53      -17.21      
450.5875    -2.51       -57.55      -39.57      -17.07      
450.64375   -2.5        -75.95      -40.32      -17.19      
450.7       -2.49       -62.65      -39.84      -17.14      
450.75625   -2.53       -63.1       -40.24      -17.3       
450.8125    -2.52       -59.27      -39.5       -17.12      
450.86875   -2.53       -55.69      -40.5       -17.33      
450.925     -2.55       -58.32      -39.53      -17.2       
450.98125   -2.51       -59.74      -39.72      -17.26      
451.0375    -2.5        -61.97      -39.3       -17.27      
451.09375   -2.52       -59.97      -40.41      -17.33      
451.15      -2.53       -67.08      -40.43      -17.12      
451.20625   -2.55       -64.09      -40.7       -17.32      
451.2625    -2.57       -55.92      -40.05      -17.21      
451.31875   -2.55       -63.78      -39.49      -17.29      
451.375     -2.54       -66.85      -39.38      -17.05      
451.43125   -2.52       -59.67      -40.08      -17.34      
451.4875    -2.54       -53.81      -41.0       -17.25      
451.54375   -2.53       -60.12      -39.66      -17.33      
451.6       -2.55       -56.99      -39.77      -17.14      
451.65625   -2.55       -64.75      -38.61      -17.32      
451.7125    -2.56       -61.75      -40.54      -17.03      
451.76875   -2.55       -60.99      -40.2       -17.25      
451.825     -2.54       -54.22      -40.12      -17.12      
451.88125   -2.55       -63.37      -40.7       -17.22      
451.9375    -2.54       -53.48      -40.5       -17.17      
451.99375   -2.52       -58.7       -39.31      -17.28      
452.05      -2.59       -68.31      -40.06      -17.09      
452.10625   -2.55       -52.58      -39.14      -17.31      
452.1625    -2.59       -54.06      -39.72      -17.28      
452.21875   -2.51       -56.26      -40.77      -17.3       
452.275     -2.59       -56.5       -39.69      -17.1       
452.33125   -2.54       -56.6       -39.96      -17.3       
452.3875    -2.57       -58.91      -40.43      -17.15      
452.44375   -2.56       -57.16      -40.3       -17.19      
452.5       -2.56       -64.99      -40.39      -17.11      
452.55625   -2.58       -65.59      -39.82      -17.43      
452.6125    -2.61       -67.42      -41.2       -17.15      
452.66875   -2.57       -58.64      -39.78      -17.29      
452.725     -2.6        -54.25      -40.32      -17.14      
452.78125   -2.56       -58.39      -38.67      -17.21      
452.8375    -2.56       -59.87      -39.97      -16.99      
452.89375   -2.55       -54.56      -39.72      -17.28      
452.95      -2.59       -56.63      -39.01      -17.11      
453.00625   -2.55       -55.26      -39.24      -17.31      
453.0625    -2.55       -59.75      -38.82      -17.06      
453.11875   -2.57       -60.74      -38.98      -17.19      
453.175     -2.56       -57.73      -39.43      -17.08      
453.23125   -2.58       -58.78      -37.73      -17.23      
453.2875    -2.64       -80.61      -39.42      -17.2       
453.34375   -2.6        -58.16      -38.41      -17.3       
453.4       -2.58       -57.23      -38.37      -17.17      
453.45625   -2.57       -53.09      -38.09      -17.27      
453.5125    -2.6        -61.04      -38.4       -17.14      
453.56875   -2.6        -61.5       -37.89      -17.27      
453.625     -2.61       -61.29      -37.71      -17.09      
453.68125   -2.63       -58.57      -37.26      -17.2       
453.7375    -2.6        -64.49      -37.78      -17.21      
453.79375   -2.61       -64.48      -36.43      -17.17      
453.85      -2.64       -62.71      -37.12      -17.17      
453.90625   -2.6        -70.27      -36.33      -17.29      
453.9625    -2.6        -58.17      -37.13      -16.96      
454.01875   -2.62       -67.75      -35.22      -17.29      
454.075     -2.65       -63.72      -35.99      -17.13      
454.13125   -2.66       -59.47      -34.89      -17.34      
454.1875    -2.68       -59.73      -35.61      -17.07      
454.24375   -2.65       -60.45      -35.69      -17.2       
454.3       -2.69       -69.14      -36.0       -16.98      
454.35625   -2.68       -61.47      -35.59      -17.08      
454.4125    -2.72       -59.35      -37.25      -17.11      
454.46875   -2.74       -56.11      -36.52      -17.21      
454.525     -2.74       -66.29      -37.53      -17.0       
454.58125   -2.75       -59.55      -37.45      -17.38      
454.6375    -2.75       -56.93      -37.95      -17.15      
454.69375   -2.79       -57.04      -39.78      -17.31      
454.75      -2.81       -54.62      -39.39      -17.04      
454.80625   -2.86       -56.23      -39.75      -17.17      
454.8625    -2.89       -59.87      -39.22      -17.13      
454.91875   -2.91       -65.99      -41.07      -17.23      
454.975     -2.92       -62.82      -39.33      -17.14      
455.03125   -2.9        -58.97      -40.94      -17.21      
455.0875    -2.88       -58.71      -39.51      -17.1       
455.14375   -2.91       -54.11      -40.68      -17.25      
455.2       -2.9        -58.03      -39.93      -17.14      
455.25625   -2.85       -79.93      -40.81      -17.27      
455.3125    -2.81       -59.9       -40.82      -16.92      
455.36875   -2.74       -58.46      -41.77      -17.15      
455.425     -2.74       -55.2       -41.43      -17.11      
455.48125   -2.78       -54.01      -41.02      -17.28      
455.5375    -2.76       -60.15      -41.38      -17.11      
455.59375   -2.74       -60.34      -40.54      -17.29      
455.65      -2.74       -64.5       -43.33      -17.0       
455.70625   -2.72       -60.31      -40.33      -17.18      
455.7625    -2.75       -60.43      -43.64      -16.97      
455.81875   -2.73       -68.19      -41.87      -17.18      
455.875     -2.7        -63.21      -44.63      -17.05      
455.93125   -2.73       -55.52      -43.04      -17.17      
455.9875    -2.7        -63.37      -44.62      -17.18      
456.04375   -2.68       -57.2       -42.99      -17.3       
456.1       -2.72       -67.31      -43.63      -17.05      
456.15625   -2.72       -67.98      -42.16      -17.22      
456.2125    -2.72       -57.19      -44.96      -17.11      
456.26875   -2.69       -58.05      -43.72      -17.18      
456.325     -2.7        -56.56      -45.88      -17.09      
456.38125   -2.69       -56.16      -41.84      -17.21      
456.4375    -2.76       -62.62      -45.6       -17.16      
456.49375   -2.7        -60.2       -41.49      -17.16      
456.55      -2.67       -54.38      -43.33      -17.13      
456.60625   -2.72       -58.55      -41.4       -17.09      
456.6625    -2.72       -67.18      -42.03      -17.09      
456.71875   -2.71       -54.61      -40.12      -17.18      
456.775     -2.75       -64.79      -41.95      -17.06      
456.83125   -2.78       -61.54      -39.27      -17.34      
456.8875    -2.75       -57.14      -39.4       -17.04      
456.94375   -2.82       -62.23      -38.34      -17.26      
457.0       -2.82       -55.75      -38.02      -17.19      
457.05625   -2.85       -57.55      -36.79      -17.37      
457.1125    -2.83       -54.4       -36.07      -17.04      
457.16875   -2.86       -58.21      -35.38      -17.1       
457.225     -2.87       -58.63      -34.21      -17.07      
457.28125   -2.91       -64.39      -33.48      -17.15      
457.3375    -2.95       -67.58      -32.1       -17.06      
457.39375   -2.94       -55.79      -31.65      -17.14      
457.45      -3.01       -55.12      -29.93      -17.02      
457.50625   -3.03       -56.68      -29.08      -17.14      
457.5625    -3.03       -61.39      -27.46      -17.09      
457.61875   -3.12       -66.78      -26.36      -17.17      
457.675     -3.17       -56.27      -24.94      -17.05      
457.73125   -3.24       -59.1       -24.31      -17.16      
457.7875    -3.25       -58.9       -23.44      -17.09      
457.84375   -3.33       -58.35      -22.66      -17.11      
457.9       -3.35       -55.99      -21.77      -17.0       
457.95625   -3.4        -57.13      -21.31      -17.08      
458.0125    -3.45       -72.08      -20.55      -17.03      
458.06875   -3.52       -57.37      -20.22      -17.16      
458.125     -3.54       -65.01      -19.91      -17.04      
458.18125   -3.57       -64.35      -20.01      -17.11      
458.2375    -3.55       -77.88      -19.91      -16.95      
458.29375   -3.55       -64.27      -20.22      -17.24      
458.35      -3.45       -57.19      -20.74      -16.97      
458.40625   -3.46       -63.16      -21.61      -17.08      
458.4625    -3.36       -53.16      -22.54      -17.18      
458.51875   -3.34       -55.59      -23.34      -17.06      
458.575     -3.2        -63.25      -24.09      -17.06      
458.63125   -3.19       -56.46      -25.31      -17.06      
458.6875    -3.09       -55.85      -26.21      -17.01      
458.74375   -3.09       -55.19      -26.74      -17.12      
458.8       -3.06       -56.19      -27.6       -16.95      
458.85625   -3.07       -59.77      -28.19      -17.23      
458.9125    -3.02       -60.78      -29.42      -17.01      
458.96875   -3.03       -56.01      -29.95      -17.16      
459.025     -2.97       -60.32      -31.4       -17.01      
459.08125   -3.01       -59.3       -31.55      -17.1       
459.1375    -2.93       -60.85      -32.73      -17.13      
459.19375   -2.97       -56.12      -33.73      -17.12      
459.25      -2.91       -57.85      -35.31      -17.1       
459.30625   -2.93       -58.62      -36.49      -17.18      
459.3625    -2.9        -56.97      -38.58      -17.1       
459.41875   -2.94       -60.83      -37.88      -17.21      
459.475     -2.93       -68.11      -40.7       -17.12      
459.53125   -2.99       -73.35      -39.63      -17.1       
459.5875    -2.93       -56.32      -41.55      -16.95      
459.64375   -3.0        -68.52      -40.47      -17.14      
459.7       -2.99       -61.84      -38.8       -17.05      
459.75625   -2.99       -58.7       -38.6       -17.09      
459.8125    -3.03       -60.57      -36.4       -16.97      
459.86875   -3.04       -60.15      -34.0       -17.14      
459.925     -3.07       -61.1       -32.38      -17.08      
459.98125   -3.12       -72.44      -30.09      -17.18      
460.0375    -3.15       -55.57      -27.71      -17.09      
460.09375   -3.28       -62.97      -25.77      -17.1       
460.15      -3.29       -55.56      -23.36      -17.06      
460.20625   -3.45       -56.34      -21.04      -17.09      
460.2625    -3.54       -66.08      -18.42      -16.99      
460.31875   -3.76       -63.14      -16.26      -17.02      
460.375     -4.0        -71.23      -14.03      -17.03      
460.43125   -4.23       -57.93      -12.55      -17.16      
460.4875    -4.4        -70.89      -11.23      -16.96      
460.54375   -4.57       -63.37      -10.65      -17.16      
460.6       -4.78       -55.56      -10.33      -17.07      
460.65625   -5.15       -57.37      -10.45      -17.08      
460.7125    -5.29       -54.77      -11.01      -16.94      
460.76875   -5.29       -59.51      -12.12      -17.16      
460.825     -4.86       -56.73      -14.07      -17.09      
460.88125   -4.28       -57.65      -16.55      -17.1       
460.9375    -3.83       -53.54      -19.63      -16.96      
460.99375   -3.57       -62.73      -22.65      -16.96      
461.05      -3.38       -55.41      -26.23      -17.07      
461.10625   -3.26       -81.92      -29.45      -17.15      
461.1625    -3.2        -53.45      -32.85      -17.12      
461.21875   -3.16       -66.77      -35.19      -17.29      
461.275     -3.12       -55.11      -38.18      -17.13      
461.33125   -3.14       -57.1       -39.18      -16.99      
461.3875    -3.14       -64.35      -36.61      -17.02      
461.44375   -3.13       -57.77      -35.18      -17.17      
461.5       -3.14       -53.73      -31.52      -17.12      
461.55625   -3.17       -52.91      -29.61      -17.13      
461.6125    -3.17       -63.5       -26.79      -17.06      
461.66875   -3.24       -54.11      -24.69      -17.06      
461.725     -3.24       -54.96      -22.23      -16.92      
461.78125   -3.32       -59.58      -20.12      -17.07      
461.8375    -3.4        -67.27      -18.0       -17.04      
461.89375   -3.46       -61.59      -16.04      -17.04      
461.95      -3.54       -56.0       -14.1       -17.05      
462.00625   -3.75       -57.08      -12.34      -17.05      
462.0625    -3.91       -53.3       -10.48      -17.04      
462.11875   -4.14       -57.95      -8.85       -17.14      
462.175     -4.44       -56.64      -7.26       -17.02      
462.23125   -4.79       -57.4       -5.68       -17.03      
462.2875    -5.27       -55.75      -4.17       -17.02      
462.34375   -5.92       -59.37      -2.82       -17.13      
462.4       -6.71       -68.2       -1.47       -17.09      
462.45625   -7.69       -55.32      -0.37       -17.14      
462.5125    -9.02       -59.43      0.68        -17.01      
462.56875   -10.51      -64.14      1.55        -16.98      
462.625     -12.44      -53.53      2.28        -17.01      
462.68125   -14.5       -56.13      2.84        -17.02      
462.7375    -16.63      -61.58      3.3         -17.0       
462.79375   -18.4       -64.37      3.74        -17.04      
462.85      -19.04      -57.25      3.95        -17.0       
462.90625   -18.8       -62.83      4.18        -17.04      
462.9625    -18.06      -54.28      4.37        -17.06      
463.01875   -17.35      -57.37      4.54        -16.98      
463.075     -16.82      -64.08      4.68        -17.06      
463.13125   -16.36      -55.47      4.78        -16.95      
463.1875    -16.04      -64.47      4.87        -17.14      
463.24375   -16.07      -56.97      5.0         -17.06      
463.3       -16.22      -61.17      5.05        -16.99      
463.35625   -16.33      -64.15      5.19        -16.97      
463.4125    -16.6       -61.23      5.23        -16.99      
463.46875   -17.07      -57.79      5.29        -16.94      
463.525     -17.41      -61.77      5.33        -16.91      
463.58125   -18.13      -65.41      5.41        -16.98      
463.6375    -18.59      -57.71      5.52        -17.06      
463.69375   -19.45      -64.07      5.6         -17.05      
463.75      -20.04      -54.36      5.59        -17.0       
463.80625   -20.96      -57.59      5.68        -17.01      
463.8625    -21.05      -56.03      5.72        -16.96      
463.91875   -21.83      -58.76      5.78        -17.11      
463.975     -21.88      -58.39      5.8         -17.19      
464.03125   -21.63      -53.83      5.83        -16.95      
464.0875    -21.28      -62.62      5.86        -17.08      
464.14375   -20.66      -56.77      5.9         -17.08      
464.2       -19.78      -56.7       5.89        -17.09      
464.25625   -19.46      -57.25      5.96        -17.02      
464.3125    -18.68      -55.59      5.89        -17.02      
464.36875   -18.07      -55.04      5.98        -17.05      
464.425     -17.5       -57.44      5.91        -17.1       
464.48125   -16.96      -63.5       5.98        -16.96      
464.5375    -16.42      -60.65      5.98        -17.04      
464.59375   -15.97      -57.41      5.95        -17.04      
464.65      -15.51      -57.4       5.96        -17.03      
464.70625   -15.19      -59.02      5.94        -17.01      
464.7625    -14.78      -60.58      5.99        -16.99      
464.81875   -14.48      -58.68      5.96        -17.07      
464.875     -14.17      -65.39      5.97        -17.03      
464.93125   -14.01      -56.8       5.99        -16.96      
464.9875    -13.66      -53.13      6.02        -16.98      
465.04375   -13.58      -59.62      5.97        -17.12      
465.1       -13.34      -55.81      5.99        -17.08      
465.15625   -13.18      -54.3       6.02        -17.04      
465.2125    -13.07      -66.14      5.97        -16.98      
465.26875   -12.93      -58.23      5.99        -16.95      
465.325     -12.7       -66.64      5.98        -17.04      
465.38125   -12.79      -71.53      6.0         -16.99      
465.4375    -12.64      -54.01      6.0         -17.11      
465.49375   -12.58      -73.3       6.01        -17.0       
465.55      -12.51      -54.23      6.03        -16.96      
465.60625   -12.58      -58.56      6.01        -17.01      
465.6625    -12.44      -52.4       6.01        -17.21      
465.71875   -12.52      -57.3       6.04        -17.07      
465.775     -12.5       -62.7       6.03        -17.04      
465.83125   -12.5       -59.72      6.02        -16.95      
465.8875    -12.57      -57.35      6.06        -17.06      
465.94375   -12.64      -54.69      6.06        -17.1       
466.0       -12.6       -59.08      6.07        -17.05      
466.05625   -12.69      -64.48      6.05        -16.99      
466.1125    -12.73      -58.71      6.1         -17.08      
466.16875   -12.86      -67.8       6.14        -16.95      
466.225     -12.96      -70.46      6.13        -17.1       
466.28125   -13.0       -59.85      6.13        -16.95      
466.3375    -13.08      -61.31      6.13        -16.97      
466.39375   -13.2       -54.64      6.16        -17.07      
466.45      -13.28      -78.01      6.14        -17.06      
466.50625   -13.4       -52.78      6.19        -17.02      
466.5625    -13.55      -54.94      6.19        -17.04      
466.61875   -13.7       -59.25      6.22        -16.94      
466.675     -13.76      -72.64      6.2         -17.06      
466.73125   -13.93      -54.84      6.24        -17.05      
466.7875    -13.98      -56.11      6.24        -16.99      
466.84375   -14.25      -64.52      6.27        -16.94      
466.9       -14.31      -55.62      6.27        -16.99      
466.95625   -14.47      -55.2       6.28        -16.98      
467.0125    -14.57      -54.62      6.31        -17.02      
467.06875   -14.74      -57.14      6.32        -17.0       
467.125     -14.85      -58.5       6.33        -17.08      
467.18125   -15.16      -62.84      6.32        -16.97      
467.2375    -15.22      -60.04      6.34        -17.06      
467.29375   -15.43      -61.2       6.4         -17.09      
467.35      -15.49      -55.19      6.41        -17.16      
467.40625   -15.58      -69.08      6.36        -17.07      
467.4625    -15.61      -59.28      6.42        -16.96      
467.51875   -15.87      -57.98      6.38        -16.89      
467.575     -15.96      -56.73      6.42        -17.01      
467.63125   -16.06      -61.18      6.44        -17.07      
467.6875    -16.06      -54.86      6.43        -17.0       
467.74375   -16.28      -58.01      6.43        -16.96      
467.8       -16.26      -60.57      6.45        -17.03      
467.85625   -16.43      -62.43      6.44        -17.0       
467.9125    -16.46      -56.37      6.49        -17.02      
467.96875   -16.48      -53.0       6.47        -16.86      
468.025     -16.46      -53.22      6.46        -17.08      
468.08125   -16.44      -59.77      6.48        -16.84      
468.1375    -16.35      -56.95      6.47        -16.96      
468.19375   -16.38      -73.83      6.45        -16.9       
468.25      -16.46      -56.54      6.45        -16.95      
468.30625   -16.5       -58.21      6.46        -16.99      
468.3625    -16.32      -62.12      6.44        -16.98      
468.41875   -16.41      -54.57      6.46        -16.88      
468.475     -16.33      -69.76      6.44        -17.01      
468.53125   -16.27      -63.33      6.41        -16.98      
468.5875    -16.28      -58.96      6.44        -17.16      
468.64375   -16.14      -69.39      6.44        -17.09      
468.7       -16.12      -55.06      6.39        -17.03      
468.75625   -16.09      -56.39      6.4         -16.92      
468.8125    -15.91      -60.8       6.41        -17.11      
468.86875   -15.98      -53.59      6.45        -16.91      
468.925     -15.85      -61.38      6.38        -17.01      
468.98125   -15.92      -73.03      6.42        -16.99      
469.0375    -15.88      -54.48      6.4         -17.03      
469.09375   -15.88      -67.37      6.38        -16.96      
469.15      -15.6       -62.46      6.4         -17.04      
469.20625   -15.69      -57.45      6.38        -16.92      
469.2625    -15.54      -61.95      6.36        -17.05      
469.31875   -15.64      -55.53      6.39        -16.96      
469.375     -15.49      -54.52      6.35        -16.9       
469.43125   -15.43      -56.33      6.37        -16.98      
469.4875    -15.39      -64.43      6.36        -16.98      
469.54375   -15.53      -55.54      6.35        -16.88      
469.6       -15.42      -57.33      6.33        -17.01      
469.65625   -15.42      -62.27      6.33        -16.94      
469.7125    -15.35      -66.92      6.3         -17.1       
469.76875   -15.4       -58.72      6.32        -16.93      
469.825     -15.31      -67.07      6.33        -17.03      
469.88125   -15.43      -57.87      6.32        -16.92      
469.9375    -15.21      -58.19      6.3         -16.9       
469.99375   -15.42      -71.75      6.33        -16.96      
470.05      -15.39      -59.78      6.29        -17.03      
470.10625   -15.36      -58.74      6.29        -16.96      
470.1625    -15.43      -65.45      6.26        -16.97      
470.21875   -15.5       -58.24      6.33        -16.89      
470.275     -15.48      -57.24      6.29        -17.07      
470.33125   -15.61      -64.27      6.34        -16.94      
470.3875    -15.53      -67.91      6.29        -17.07      
470.44375   -15.67      -62.67      6.33        -16.97      
470.5       -15.59      -64.14      6.27        -16.91      
470.55625   -15.63      -57.53      6.27        -16.81      
470.6125    -15.75      -64.56      6.28        -16.98      
470.66875   -15.84      -54.57      6.27        -16.9       
470.725     -15.76      -60.46      6.33        -17.09      
470.78125   -15.96      -71.92      6.34        -16.94      
470.8375    -15.94      -65.62      6.31        -17.02      
470.89375   -16.09      -63.16      6.31        -16.82      
470.95      -16.1       -63.56      6.29        -17.03      
471.00625   -16.19      -57.52      6.33        -16.77      
471.0625    -16.34      -55.66      6.3         -16.99      
471.11875   -16.47      -57.66      6.34        -16.9       
471.175     -16.4       -64.35      6.3         -17.04      
471.23125   -16.72      -61.96      6.35        -16.99      
471.2875    -16.66      -56.08      6.33        -17.13      
471.34375   -16.91      -54.0       6.32        -17.05      
471.4       -16.92      -56.19      6.3         -17.0       
471.45625   -17.0       -53.48      6.34        -16.95      
471.5125    -17.15      -56.13      6.34        -16.99      
471.56875   -17.26      -64.16      6.37        -16.83      
471.625     -17.3       -53.62      6.34        -17.11      
471.68125   -17.39      -54.83      6.35        -16.95      
471.7375    -17.39      -59.08      6.32        -16.95      
471.79375   -17.52      -55.89      6.35        -16.83      
471.85      -17.47      -63.75      6.36        -17.08      
471.90625   -17.58      -58.27      6.38        -16.89      
471.9625    -17.65      -55.33      6.35        -17.1       
472.01875   -17.57      -61.21      6.4         -16.92      
472.075     -17.65      -55.51      6.37        -16.96      
472.13125   -17.67      -55.54      6.38        -16.9       
472.1875    -17.68      -61.27      6.34        -16.92      
472.24375   -17.89      -54.45      6.4         -16.91      
472.3       -17.63      -78.55      6.38        -16.97      
472.35625   -17.73      -54.31      6.4         -16.91      
472.4125    -17.59      -65.27      6.41        -16.94      
472.46875   -17.82      -64.97      6.4         -16.83      
472.525     -17.68      -71.79      6.39        -17.0       
472.58125   -17.81      -57.78      6.38        -16.86      
472.6375    -17.73      -60.17      6.4         -17.02      
472.69375   -17.67      -63.12      6.4         -16.93      
472.75      -17.48      -55.4       6.4         -17.02      
472.80625   -17.5       -56.12      6.4         -16.92      
472.8625    -17.43      -61.9       6.43        -16.94      
472.91875   -17.42      -57.94      6.43        -16.93      
472.975     -17.24      -54.36      6.41        -16.99      
473.03125   -17.15      -58.49      6.44        -16.89      
473.0875    -16.98      -57.22      6.43        -16.88      
473.14375   -17.01      -61.38      6.43        -16.99      
473.2       -16.81      -58.55      6.43        -16.92      
473.25625   -16.63      -56.16      6.44        -16.95      
473.3125    -16.53      -59.4       6.44        -17.09      
473.36875   -16.49      -55.0       6.43        -16.97      
473.425     -16.23      -63.79      6.39        -17.12      
473.48125   -16.1       -56.59      6.45        -16.87      
473.5375    -16.0       -67.83      6.41        -17.0       
473.59375   -15.81      -58.51      6.44        -16.93      
473.65      -15.68      -58.59      6.41        -16.9       
473.70625   -15.5       -62.53      6.42        -16.86      
473.7625    -15.32      -55.92      6.41        -16.89      
473.81875   -15.26      -60.33      6.42        -16.88      
473.875     -14.93      -58.06      6.4         -16.97      
473.93125   -14.81      -55.4       6.38        -17.0       
473.9875    -14.6       -59.66      6.36        -16.96      
474.04375   -14.47      -67.09      6.39        -16.76      
474.1       -14.22      -53.11      6.37        -17.01      
474.15625   -14.1       -74.17      6.39        -16.91      
474.2125    -14.0       -58.62      6.33        -16.97      
474.26875   -13.85      -58.77      6.34        -16.99      
474.325     -13.64      -55.24      6.35        -16.95      
474.38125   -13.53      -67.38      6.31        -16.94      
474.4375    -13.22      -57.24      6.33        -16.98      
474.49375   -13.23      -65.01      6.25        -16.96      
474.55      -12.96      -63.17      6.27        -16.84      
474.60625   -12.91      -54.92      6.26        -16.86      
474.6625    -12.74      -66.18      6.27        -17.04      
474.71875   -12.78      -67.11      6.25        -16.92      
474.775     -12.54      -55.77      6.25        -17.07      
474.83125   -12.37      -59.02      6.27        -16.93      
474.8875    -12.22      -67.46      6.25        -16.99      
474.94375   -12.23      -66.03      6.2         -16.98      
475.0       -12.0       -63.94      6.19        -16.91      
475.05625   -11.95      -56.67      6.21        -16.83      
475.1125    -11.81      -56.53      6.18        -16.97      
475.16875   -11.77      -57.18      6.17        -16.82      
475.225     -11.62      -67.27      6.14        -16.9       
475.28125   -11.6       -60.77      6.12        -16.88      
475.3375    -11.43      -56.55      6.1         -16.93      
475.39375   -11.38      -55.52      6.14        -16.89      
475.45      -11.28      -60.42      6.08        -16.91      
475.50625   -11.14      -72.16      6.11        -16.9       
475.5625    -11.06      -54.07      6.04        -16.96      
475.61875   -11.0       -62.27      6.05        -16.87      
475.675     -10.85      -59.23      6.06        -16.89      
475.73125   -10.78      -61.44      6.02        -16.95      
475.7875    -10.63      -57.83      6.03        -17.0       
475.84375   -10.67      -57.42      6.0         -16.84      
475.9       -10.55      -58.15      6.01        -16.93      
475.95625   -10.42      -53.34      5.96        -16.91      
476.0125    -10.37      -59.4       6.0         -17.01      
476.06875   -10.28      -55.04      5.96        -16.87      
476.125     -10.29      -66.5       5.93        -17.0       
476.18125   -10.18      -63.6       5.96        -16.87      
476.2375    -10.05      -70.56      5.92        -16.94      
476.29375   -10.03      -66.8       5.92        -16.93      
476.35      -9.98       -57.06      5.89        -16.92      
476.40625   -9.9        -57.05      5.89        -16.88      
476.4625    -9.82       -63.06      5.86        -16.84      
476.51875   -9.89       -58.76      5.88        -17.03      
476.575     -9.73       -58.57      5.85        -17.0       
476.63125   -9.78       -57.95      5.84        -16.85      
476.6875    -9.72       -58.49      5.84        -16.72      
476.74375   -9.67       -56.23      5.79        -16.95      
476.8       -9.65       -55.16      5.78        -16.89      
476.85625   -9.62       -57.73      5.81        -16.96      
476.9125    -9.61       -53.45      5.79        -16.86      
476.96875   -9.51       -51.57      5.8         -16.92      
477.025     -9.48       -62.21      5.79        -16.82      
477.08125   -9.45       -61.46      5.77        -16.87      
477.1375    -9.45       -61.3       5.76        -16.81      
477.19375   -9.46       -56.67      5.76        -16.95      
477.25      -9.4        -56.61      5.73        -16.99      
477.30625   -9.4        -60.96      5.73        -16.88      
477.3625    -9.39       -64.62      5.74        -16.99      
477.41875   -9.42       -53.43      5.73        -16.83      
477.475     -9.41       -54.84      5.76        -16.89      
477.53125   -9.34       -64.7       5.72        -16.91      
477.5875    -9.37       -54.31      5.72        -17.0       
477.64375   -9.38       -55.21      5.71        -16.89      
477.7       -9.42       -60.33      5.7         -16.84      
477.75625   -9.37       -64.23      5.64        -16.92      
477.8125    -9.37       -57.69      5.67        -16.88      
477.86875   -9.32       -54.89      5.64        -17.0       
477.925     -9.38       -57.3       5.7         -16.97      
477.98125   -9.36       -58.3       5.66        -17.01      
478.0375    -9.39       -61.93      5.67        -16.93      
478.09375   -9.34       -58.26      5.67        -16.87      
478.15      -9.41       -63.09      5.68        -16.91      
478.20625   -9.42       -57.7       5.66        -16.89      
478.2625    -9.42       -68.21      5.72        -16.83      
478.31875   -9.41       -63.87      5.64        -16.94      
478.375     -9.51       -58.81      5.69        -16.91      
478.43125   -9.49       -57.25      5.68        -16.93      
478.4875    -9.56       -58.53      5.66        -16.85      
478.54375   -9.51       -60.79      5.69        -16.91      
478.6       -9.6        -75.15      5.68        -16.95      
478.65625   -9.56       -73.26      5.66        -16.91      
478.7125    -9.67       -61.87      5.69        -16.96      
478.76875   -9.61       -64.71      5.7         -16.98      
478.825     -9.72       -70.08      5.72        -16.79      
478.88125   -9.74       -62.49      5.7         -16.94      
478.9375    -9.8        -53.21      5.72        -16.86      
478.99375   -9.79       -59.22      5.73        -16.86      
479.05      -9.87       -65.72      5.72        -16.89      
479.10625   -9.93       -55.77      5.73        -16.86      
479.1625    -9.96       -54.5       5.75        -16.97      
479.21875   -9.93       -65.38      5.72        -17.02      
479.275     -10.05      -59.04      5.77        -16.85      
479.33125   -10.01      -60.5       5.78        -16.93      
479.3875    -10.17      -59.59      5.76        -16.88      
479.44375   -10.16      -58.4       5.75        -17.0       
479.5       -10.31      -59.69      5.78        -16.95      
479.55625   -10.31      -59.84      5.78        -16.99      
479.6125    -10.43      -57.67      5.79        -16.88      
479.66875   -10.48      -65.85      5.81        -16.85      
479.725     -10.64      -58.53      5.8         -16.94      
479.78125   -10.65      -52.53      5.82        -16.88      
479.8375    -10.78      -64.19      5.85        -16.95      
479.89375   -10.77      -59.1       5.82        -16.94      
479.95      -10.87      -60.49      5.84        -16.89      
480.00625   -10.98      -58.17      5.82        -16.89      
480.0625    -11.05      -62.57      5.88        -16.82      
480.11875   -11.12      -53.91      5.87        -16.98      
480.175     -11.29      -65.45      5.88        -16.85      
480.23125   -11.28      -67.33      5.92        -16.96      
480.2875    -11.47      -55.38      5.88        -16.91      
480.34375   -11.47      -62.04      5.89        -16.93      
480.4       -11.61      -58.3       5.94        -16.97      
480.45625   -11.63      -56.76      5.93        -16.95      
480.5125    -11.83      -58.36      5.92        -16.88      
480.56875   -11.81      -63.54      5.93        -16.88      
480.625     -12.04      -59.34      5.95        -16.8       
480.68125   -12.09      -66.95      5.96        -16.9       
480.7375    -12.28      -60.24      6.0         -16.81      
480.79375   -12.43      -60.87      5.95        -16.99      
480.85      -12.56      -70.37      6.02        -16.81      
480.90625   -12.6       -64.08      5.97        -16.89      
480.9625    -12.81      -62.74      6.01        -16.93      
481.01875   -12.88      -64.12      6.0         -17.0       
481.075     -13.11      -69.51      6.06        -16.9       
481.13125   -13.22      -62.81      6.04        -16.93      
481.1875    -13.43      -59.41      6.07        -16.93      
481.24375   -13.59      -72.24      6.07        -17.02      
481.3       -13.77      -57.46      6.09        -16.78      
481.35625   -13.77      -59.15      6.1         -16.94      
481.4125    -14.06      -60.48      6.13        -16.82      
481.46875   -14.07      -61.15      6.15        -17.01      
481.525     -14.38      -66.42      6.12        -16.81      
481.58125   -14.3       -53.99      6.11        -16.97      
481.6375    -14.52      -57.52      6.18        -16.71      
481.69375   -14.57      -61.75      6.14        -16.95      
481.75      -14.77      -63.45      6.13        -16.89      
481.80625   -14.79      -57.2       6.16        -17.04      
481.8625    -14.94      -69.8       6.15        -16.94      
481.91875   -14.93      -56.33      6.14        -16.93      
481.975     -15.21      -59.36      6.15        -16.81      
482.03125   -15.11      -62.32      6.13        -17.04      
482.0875    -15.26      -57.49      6.16        -16.91      
482.14375   -15.28      -53.42      6.16        -16.95      
482.2       -15.42      -60.29      6.14        -16.76      
482.25625   -15.32      -78.31      6.17        -16.96      
482.3125    -15.6       -59.23      6.19        -16.79      
482.36875   -15.52      -55.64      6.14        -16.94      
482.425     -15.64      -69.23      6.14        -16.75      
482.48125   -15.76      -55.19      6.12        -16.95      
482.5375    -15.74      -58.79      6.1         -16.91      
482.59375   -15.69      -60.72      6.1         -16.95      
482.65      -15.83      -63.58      6.11        -16.91      
482.70625   -15.66      -66.1       6.11        -16.92      
482.7625    -15.72      -54.17      6.06        -16.85      
482.81875   -15.62      -57.62      6.07        -16.98      
482.875     -15.6       -63.36      6.07        -16.84      
482.93125   -15.47      -65.4       6.04        -17.02      
482.9875    -15.61      -54.58      6.04        -16.89      
483.04375   -15.29      -58.83      6.04        -16.86      
483.1       -15.44      -57.79      6.04        -16.9       
483.15625   -15.35      -56.42      6.04        -16.84      
483.2125    -15.46      -59.96      6.01        -16.88      
483.26875   -15.1       -50.02      5.97        -17.01      
483.325     -15.15      -59.95      6.01        -16.79      
483.38125   -15.08      -64.21      5.95        -16.88      
483.4375    -15.16      -60.07      5.92        -16.94      
483.49375   -14.98      -58.86      5.95        -17.13      
483.55      -15.04      -60.95      5.92        -16.85      
483.60625   -14.92      -55.15      5.91        -17.03      
483.6625    -14.88      -71.61      5.92        -16.6       
483.71875   -14.7       -56.75      5.86        -17.0       
483.775     -14.81      -61.46      5.85        -16.8       
483.83125   -14.61      -63.5       5.85        -16.93      
483.8875    -14.68      -56.68      5.82        -16.94      
483.94375   -14.55      -56.51      5.83        -17.06      
484.0       -14.66      -56.13      5.8         -16.84      
484.05625   -14.54      -55.88      5.82        -17.11      
484.1125    -14.54      -60.91      5.82        -16.93      
484.16875   -14.47      -58.6       5.79        -17.05      
484.225     -14.54      -63.29      5.79        -16.87      
484.28125   -14.38      -52.87      5.78        -17.05      
484.3375    -14.48      -62.17      5.73        -16.88      
484.39375   -14.21      -57.38      5.74        -17.02      
484.45      -14.43      -53.46      5.74        -16.78      
484.50625   -14.29      -61.51      5.71        -16.97      
484.5625    -14.41      -57.1       5.69        -16.84      
484.61875   -14.34      -57.07      5.64        -17.12      
484.675     -14.53      -59.21      5.71        -16.82      
484.73125   -14.55      -72.01      5.68        -16.99      
484.7875    -14.72      -55.09      5.63        -16.8       
484.84375   -14.68      -56.03      5.64        -17.02      
484.9       -14.87      -59.11      5.64        -16.85      
484.95625   -14.84      -59.39      5.57        -17.05      
485.0125    -15.13      -58.4       5.59        -16.8       
485.06875   -15.0       -64.54      5.6         -16.84      
485.125     -15.18      -69.75      5.59        -16.86      
485.18125   -15.2       -55.78      5.58        -16.99      
485.2375    -15.39      -62.6       5.55        -16.83      
485.29375   -15.44      -55.37      5.56        -16.94      
485.35      -15.72      -56.02      5.52        -16.88      
485.40625   -15.82      -59.19      5.48        -17.02      
485.4625    -16.2       -59.74      5.48        -16.88      
485.51875   -16.3       -57.02      5.47        -16.88      
485.575     -16.72      -56.08      5.45        -16.87      
485.63125   -16.83      -67.31      5.44        -16.78      
485.6875    -17.2       -58.72      5.44        -16.84      
485.74375   -17.4       -60.0       5.42        -16.99      
485.8       -17.84      -67.39      5.42        -16.86      
485.85625   -18.15      -65.61      5.38        -16.96      
485.9125    -18.63      -68.29      5.38        -16.84      
485.96875   -18.95      -54.71      5.35        -16.96      
486.025     -19.47      -62.79      5.33        -16.93      
486.08125   -20.04      -58.67      5.3         -17.01      
486.1375    -20.67      -59.41      5.32        -16.75      
486.19375   -21.4       -61.57      5.28        -16.96      
486.25      -22.22      -67.24      5.25        -16.98      
486.30625   -22.81      -67.48      5.2         -17.08      
486.3625    -24.37      -56.64      5.19        -16.91      
486.41875   -25.06      -58.76      5.16        -17.09      
486.475     -26.67      -63.77      5.15        -16.83      
486.53125   -27.71      -57.29      5.1         -16.88      
486.5875    -29.56      -54.15      5.1         -16.92      
486.64375   -30.21      -71.0       5.05        -16.96      
486.7       -30.7       -58.82      5.02        -16.86      
486.75625   -29.87      -58.39      4.95        -17.02      
486.8125    -28.66      -57.52      4.96        -16.76      
486.86875   -26.79      -56.66      4.9         -17.11      
486.925     -25.3       -56.58      4.89        -16.91      
486.98125   -23.68      -64.61      4.86        -17.01      
487.0375    -22.22      -79.81      4.83        -16.82      
487.09375   -20.82      -67.32      4.77        -16.89      
487.15      -19.79      -59.48      4.74        -16.82      
487.20625   -18.82      -62.09      4.64        -17.09      
487.2625    -17.91      -61.08      4.59        -16.84      
487.31875   -16.89      -61.33      4.5         -16.95      
487.375     -16.22      -54.82      4.44        -16.78      
487.43125   -15.44      -64.24      4.34        -16.85      
487.4875    -14.7       -60.78      4.27        -16.91      
487.54375   -13.98      -66.29      4.15        -17.02      
487.6       -13.42      -60.06      4.11        -16.88      
487.65625   -12.67      -72.86      3.99        -16.97      
487.7125    -12.24      -53.53      3.9         -16.91      
487.76875   -11.7       -59.42      3.76        -17.01      
487.825     -11.3       -56.79      3.63        -16.83      
487.88125   -10.9       -62.93      3.52        -16.94      
487.9375    -10.54      -58.44      3.44        -16.92      
487.99375   -10.08      -55.36      3.28        -16.92      
488.05      -9.83       -63.78      3.12        -16.93      
488.10625   -9.45       -62.06      3.01        -17.02      
488.1625    -9.13       -65.02      2.89        -16.73      
488.21875   -8.77       -66.19      2.71        -17.07      
488.275     -8.47       -55.37      2.65        -16.72      
488.33125   -8.13       -58.22      2.45        -17.01      
488.3875    -7.87       -60.15      2.32        -16.7       
488.44375   -7.48       -60.81      2.11        -17.0       
488.5       -7.27       -63.39      1.95        -16.88      
488.55625   -7.01       -64.94      1.79        -16.96      
488.6125    -6.8        -56.46      1.62        -16.89      
488.66875   -6.59       -63.3       1.48        -17.23      
488.725     -6.45       -58.61      1.31        -16.86      
488.78125   -6.21       -67.19      1.08        -16.97      
488.8375    -6.09       -62.16      0.92        -16.99      
488.89375   -5.94       -66.04      0.74        -17.08      
488.95      -5.76       -62.43      0.55        -16.86      
489.00625   -5.57       -54.52      0.35        -17.07      
489.0625    -5.49       -56.58      0.21        -16.94      
489.11875   -5.29       -55.05      0.03        -17.16      
489.175     -5.19       -54.13      -0.13       -16.86      
489.23125   -4.96       -60.98      -0.35       -16.98      
489.2875    -4.86       -62.32      -0.55       -16.88      
489.34375   -4.75       -69.26      -0.77       -16.99      
489.4       -4.66       -61.52      -0.96       -16.79      
489.45625   -4.52       -67.45      -1.18       -16.95      
489.5125    -4.47       -58.31      -1.35       -16.91      
489.56875   -4.29       -65.14      -1.57       -17.01      
489.625     -4.25       -52.55      -1.81       -16.96      
489.68125   -4.16       -76.61      -2.04       -16.96      
489.7375    -4.08       -56.06      -2.22       -16.93      
489.79375   -4.02       -58.07      -2.45       -17.06      
489.85      -3.97       -55.86      -2.64       -16.98      
489.90625   -3.83       -60.11      -2.88       -16.98      
489.9625    -3.8        -59.42      -3.07       -16.92      
490.01875   -3.71       -78.03      -3.31       -17.09      
490.075     -3.7        -56.68      -3.5        -16.98      
490.13125   -3.62       -63.77      -3.71       -16.97      
490.1875    -3.55       -64.02      -3.93       -16.88      
490.24375   -3.49       -50.74      -4.14       -16.99      
490.3       -3.52       -63.7       -4.37       -16.88      
490.35625   -3.39       -59.23      -4.59       -17.09      
490.4125    -3.37       -64.91      -4.79       -16.86      
490.46875   -3.32       -57.55      -4.98       -17.02      
490.525     -3.32       -57.67      -5.2        -16.87      
490.58125   -3.23       -60.65      -5.43       -17.05      
490.6375    -3.24       -55.64      -5.61       -16.92      
490.69375   -3.17       -63.9       -5.85       -16.97      
490.75      -3.16       -54.46      -6.05       -16.89      
490.80625   -3.12       -67.36      -6.31       -17.05      
490.8625    -3.09       -60.76      -6.47       -16.92      
490.91875   -3.07       -56.08      -6.73       -17.06      
490.975     -3.09       -62.83      -6.9        -16.89      
491.03125   -3.0        -54.26      -7.13       -17.01      
491.0875    -2.97       -65.88      -7.27       -16.91      
491.14375   -2.93       -62.32      -7.53       -17.02      
491.2       -2.9        -59.55      -7.67       -16.86      
491.25625   -2.87       -56.57      -7.88       -17.02      
491.3125    -2.89       -70.46      -8.05       -16.94      
491.36875   -2.83       -56.11      -8.28       -16.88      
491.425     -2.85       -65.03      -8.49       -16.9       
491.48125   -2.78       -61.27      -8.62       -16.93      
491.5375    -2.82       -57.79      -8.84       -16.98      
491.59375   -2.75       -61.67      -9.02       -16.87      
491.65      -2.72       -69.1       -9.26       -16.94      
491.70625   -2.71       -59.8       -9.45       -16.98      
491.7625    -2.74       -56.89      -9.6        -16.99      
491.81875   -2.67       -63.73      -9.81       -17.02      
491.875     -2.68       -52.27      -10.0       -16.9       
491.93125   -2.68       -56.58      -10.2       -16.98      
491.9875    -2.66       -61.49      -10.37      -16.9       
492.04375   -2.63       -61.38      -10.57      -17.14      
492.1       -2.63       -61.38      -10.78      -16.96      
492.15625   -2.58       -70.94      -10.91      -17.0       
492.2125    -2.62       -53.83      -11.25      -16.9       
492.26875   -2.56       -60.48      -11.42      -16.96      
492.325     -2.61       -60.04      -11.63      -16.97      
492.38125   -2.56       -57.95      -11.74      -16.97      
492.4375    -2.57       -54.33      -11.99      -17.02      
492.49375   -2.53       -60.83      -12.15      -16.98      
492.55      -2.57       -64.64      -12.31      -16.9       
492.60625   -2.53       -66.83      -12.53      -17.06      
492.6625    -2.51       -53.82      -12.73      -16.93      
492.71875   -2.53       -62.49      -12.87      -17.07      
492.775     -2.54       -58.88      -13.07      -17.0       
492.83125   -2.5        -58.16      -13.26      -17.0       
492.8875    -2.51       -63.31      -13.49      -17.0       
492.94375   -2.49       -55.76      -13.6       -17.07      
493.0       -2.47       -58.16      -13.76      -16.87      
493.05625   -2.5        -54.96      -13.97      -17.02      
493.1125    -2.47       -56.35      -14.15      -16.87      
493.16875   -2.45       -54.44      -14.35      -16.96      
493.225     -2.45       -64.96      -14.41      -16.99      
493.28125   -2.45       -55.82      -14.69      -16.96      
493.3375    -2.48       -58.33      -14.86      -16.89      
493.39375   -2.42       -67.13      -15.03      -16.98      
493.45      -2.37       -59.27      -15.24      -16.93      
493.50625   -2.44       -55.0       -15.39      -16.98      
493.5625    -2.43       -64.08      -15.62      -16.98      
493.61875   -2.4        -58.53      -15.71      -17.03      
493.675     -2.4        -69.66      -15.95      -16.95      
493.73125   -2.39       -61.41      -16.01      -17.07      
493.7875    -2.35       -56.0       -16.34      -16.93      
493.84375   -2.42       -59.84      -16.53      -17.01      
493.9       -2.38       -56.19      -16.77      -17.06      
493.95625   -2.39       -64.58      -16.87      -16.95      
494.0125    -2.38       -54.96      -17.03      -17.11      
494.06875   -2.37       -51.92      -17.15      -16.93      
494.125     -2.39       -53.96      -17.44      -16.89      
494.18125   -2.35       -58.68      -17.47      -17.03      
494.2375    -2.34       -65.99      -17.79      -16.94      
494.29375   -2.36       -61.2       -17.81      -17.01      
494.35      -2.38       -61.86      -18.06      -16.9       
494.40625   -2.35       -53.9       -18.33      -17.01      
494.4625    -2.36       -71.39      -18.44      -17.09      
494.51875   -2.33       -70.25      -18.58      -16.99      
494.575     -2.3        -57.87      -18.89      -17.01      
494.63125   -2.33       -55.53      -19.0       -17.02      
494.6875    -2.34       -63.21      -19.23      -16.93      
494.74375   -2.33       -57.5       -19.37      -16.99      
494.8       -2.3        -66.13      -19.68      -16.97      
494.85625   -2.31       -58.75      -19.69      -16.92      
494.9125    -2.33       -61.16      -20.03      -17.01      
494.96875   -2.32       -62.89      -20.05      -17.07      
495.025     -2.35       -56.06      -20.39      -17.02      
495.08125   -2.33       -56.06      -20.52      -16.94      
495.1375    -2.3        -58.33      -20.64      -17.09      
495.19375   -2.32       -59.82      -20.79      -16.94      
495.25      -2.3        -51.78      -21.03      -17.07      
495.30625   -2.3        -57.2       -21.22      -16.81      
495.3625    -2.33       -57.69      -21.41      -16.96      
495.41875   -2.29       -67.31      -21.51      -16.91      
495.475     -2.3        -56.34      -21.79      -16.95      
495.53125   -2.3        -56.36      -21.85      -16.99      
495.5875    -2.31       -54.48      -22.04      -17.07      
495.64375   -2.29       -72.38      -22.14      -16.95      
495.7       -2.31       -64.42      -22.46      -17.03      
495.75625   -2.29       -57.04      -22.53      -17.01      
495.8125    -2.33       -69.89      -22.62      -17.0       
495.86875   -2.29       -54.25      -23.0       -16.97      
495.925     -2.3        -64.26      -23.14      -17.02      
495.98125   -2.34       -52.31      -23.26      -17.06      
496.0375    -2.32       -58.94      -23.52      -17.03      
496.09375   -2.27       -61.92      -23.63      -16.99      
496.15      -2.33       -75.54      -23.75      -17.1       
496.20625   -2.35       -64.92      -23.76      -17.01      
496.2625    -2.3        -57.35      -24.1       -17.09      
496.31875   -2.29       -58.51      -24.26      -16.91      
496.375     -2.31       -66.96      -24.23      -17.13      
496.43125   -2.25       -61.4       -24.36      -17.02      
496.4875    -2.3        -56.07      -24.54      -17.0       
496.54375   -2.23       -54.92      -24.62      -16.88      
496.6       -2.28       -56.74      -24.81      -17.13      
496.65625   -2.25       -60.47      -24.75      -17.02      
496.7125    -2.31       -56.25      -25.24      -17.14      
496.76875   -2.29       -58.78      -25.18      -17.01      
496.825     -2.35       -56.22      -25.44      -17.04      
496.88125   -2.28       -70.91      -25.55      -16.95      
496.9375    -2.33       -52.46      -25.73      -16.99      
496.99375   -2.28       -74.04      -25.59      -16.96      
497.05      -2.28       -62.99      -25.88      -17.11      
497.10625   -2.3        -59.88      -26.16      -16.96      
497.1625    -2.31       -67.05      -26.15      -17.18      
497.21875   -2.29       -60.46      -26.24      -16.99      
497.275     -2.31       -55.98      -26.26      -17.1       
497.33125   -2.27       -56.75      -26.49      -17.05      
497.3875    -2.29       -57.18      -26.53      -17.14      
497.44375   -2.28       -57.26      -26.7       -17.15      
497.5       -2.31       -54.17      -26.75      -17.07      
497.55625   -2.28       -64.51      -26.89      -16.99      
497.6125    -2.3        -64.0       -27.0       -17.11      
497.66875   -2.28       -66.44      -27.37      -17.01      
497.725     -2.3        -65.73      -27.32      -17.07      
497.78125   -2.28       -57.54      -27.13      -17.11      
497.8375    -2.27       -65.06      -27.28      -17.1       
497.89375   -2.27       -54.65      -27.48      -16.93      
497.95      -2.28       -62.63      -27.64      -17.05      
498.00625   -2.29       -55.84      -27.83      -17.11      
498.0625    -2.26       -58.12      -27.45      -17.06      
498.11875   -2.29       -64.57      -27.46      -17.0       
498.175     -2.28       -56.21      -27.5       -16.99      
498.23125   -2.29       -63.74      -27.51      -17.03      
498.2875    -2.31       -56.89      -27.31      -17.03      
498.34375   -2.31       -64.25      -27.72      -17.06      
498.4       -2.3        -66.65      -27.72      -17.13      
498.45625   -2.25       -59.02      -27.91      -16.99      
498.5125    -2.27       -58.28      -27.97      -17.07      
498.56875   -2.31       -59.72      -28.34      -17.15      
498.625     -2.33       -55.54      -28.16      -17.22      
498.68125   -2.28       -59.4       -28.51      -17.12      
498.7375    -2.3        -60.53      -28.16      -17.03      
498.79375   -2.3        -55.82      -28.12      -17.07      
498.85      -2.3        -62.25      -28.31      -17.09      
498.90625   -2.24       -59.94      -28.8       -17.12      
498.9625    -2.23       -55.34      -28.09      -17.08      
499.01875   -2.27       -57.27      -28.61      -17.14      
499.075     -2.28       -57.9       -28.31      -17.16      
499.13125   -2.25       -60.15      -28.68      -17.11      
499.1875    -2.3        -50.33      -28.68      -17.09      
499.24375   -2.24       -59.8       -28.73      -17.14      
499.3       -2.29       -60.86      -28.84      -17.02      
499.35625   -2.25       -60.77      -29.03      -17.12      
499.4125    -2.25       -58.33      -28.98      -17.1       
499.46875   -2.28       -61.57      -29.3       -17.05      
499.525     -2.28       -60.67      -29.0       -17.05      
499.58125   -2.23       -64.37      -29.47      -17.04      
499.6375    -2.28       -52.97      -29.3       -17.16      
499.69375   -2.28       -63.1       -29.58      -16.91      
499.75      -2.28       -61.3       -29.71      -17.01      
499.80625   -2.24       -59.09      -29.72      -17.07      
499.8625    -2.28       -61.66      -29.44      -17.11      
499.91875   -2.26       -57.95      -29.81      -17.18      
499.975     -2.28       -61.42      -30.18      -17.17      
500.03125   -2.28       -57.35      -30.12      -17.08      
500.0875    -2.26       -71.07      -29.87      -17.18      
500.14375   -2.26       -58.02      -30.03      -17.01      
500.2       -2.26       -57.06      -30.18      -17.13      
500.25625   -2.25       -55.64      -30.23      -17.18      
500.3125    -2.28       -56.77      -30.2       -17.15      
500.36875   -2.29       -53.13      -30.22      -17.02      
500.425     -2.3        -56.16      -30.15      -17.02      
500.48125   -2.24       -62.98      -30.35      -17.14      
500.5375    -2.27       -65.64      -30.15      -17.07      
500.59375   -2.22       -65.31      -30.61      -17.1       
500.65      -2.28       -58.56      -30.15      -17.2       
500.70625   -2.23       -55.59      -31.06      -17.16      
500.7625    -2.24       -55.03      -30.53      -17.2       
500.81875   -2.24       -64.08      -31.04      -17.02      
500.875     -2.3        -59.2       -31.29      -17.23      
500.93125   -2.24       -61.76      -31.62      -17.17      
500.9875    -2.27       -65.65      -30.91      -17.0       
501.04375   -2.23       -57.95      -31.79      -17.18      
501.1       -2.26       -62.9       -31.15      -17.15      
501.15625   -2.28       -55.95      -31.92      -17.18      
501.2125    -2.28       -59.94      -31.26      -17.12      
501.26875   -2.23       -56.17      -31.41      -17.08      
501.325     -2.24       -57.19      -31.46      -16.97      
501.38125   -2.23       -76.43      -31.44      -17.17      
501.4375    -2.28       -56.71      -31.59      -17.18      
501.49375   -2.24       -55.53      -31.8       -17.2       
501.55      -2.26       -66.92      -31.14      -17.17      
501.60625   -2.24       -56.04      -31.96      -17.13      
501.6625    -2.31       -72.53      -31.73      -17.17      
501.71875   -2.26       -79.75      -32.14      -17.24      
501.775     -2.29       -53.4       -31.87      -17.15      
501.83125   -2.27       -55.09      -32.35      -17.11      
501.8875    -2.28       -61.12      -32.1       -17.11      
501.94375   -2.27       -62.43      -32.83      -17.15      
502.0       -2.29       -62.79      -32.19      -17.15      
502.05625   -2.29       -54.2       -32.91      -17.22      
502.1125    -2.29       -65.56      -32.12      -17.13      
502.16875   -2.27       -54.92      -32.36      -17.16      
502.225     -2.33       -68.44      -32.36      -17.2       
502.28125   -2.26       -54.39      -32.72      -17.2       
502.3375    -2.28       -60.26      -32.01      -17.09      
502.39375   -2.28       -68.02      -32.84      -17.13      
502.45      -2.31       -55.92      -32.11      -17.18      
502.50625   -2.29       -57.91      -33.27      -17.23      
502.5625    -2.32       -61.75      -32.4       -17.06      
502.61875   -2.29       -61.17      -33.05      -17.16      
502.675     -2.31       -56.82      -32.24      -17.11      
502.73125   -2.27       -64.28      -32.75      -17.22      
502.7875    -2.28       -58.77      -32.52      -17.18      
502.84375   -2.28       -53.25      -32.82      -17.33      
502.9       -2.29       -58.13      -32.17      -17.27      
502.95625   -2.27       -57.73      -32.91      -17.13      
503.0125    -2.32       -70.68      -32.19      -17.27      
503.06875   -2.33       -78.22      -32.99      -17.2       
503.125     -2.31       -54.07      -32.85      -17.13      
503.18125   -2.3        -66.06      -33.13      -17.24      
503.2375    -2.31       -57.29      -32.24      -17.12      
503.29375   -2.28       -55.82      -33.03      -17.16      
503.35      -2.33       -63.76      -32.48      -17.12      
503.40625   -2.33       -61.5       -33.19      -17.14      
503.4625    -2.31       -78.16      -32.72      -17.19      
503.51875   -2.25       -58.74      -32.85      -17.19      
503.575     -2.33       -67.15      -32.57      -17.09      
503.63125   -2.28       -55.03      -33.12      -17.19      
503.6875    -2.36       -65.73      -33.04      -17.32      
503.74375   -2.27       -54.5       -33.61      -17.32      
503.8       -2.33       -61.58      -33.58      -17.22      
503.85625   -2.32       -59.87      -34.07      -17.2       
503.9125    -2.28       -63.73      -33.21      -17.11      
503.96875   -2.27       -61.72      -33.75      -17.22      
504.025     -2.35       -54.63      -32.86      -17.14      
504.08125   -2.34       -61.55      -33.82      -17.16      
504.1375    -2.36       -64.66      -33.07      -17.18      
504.19375   -2.29       -55.88      -33.31      -17.27      
504.25      -2.39       -55.81      -33.15      -17.11      
504.30625   -2.3        -71.75      -33.81      -17.24      
504.3625    -2.35       -57.35      -33.01      -17.29      
504.41875   -2.3        -58.23      -33.64      -17.28      
504.475     -2.38       -62.46      -32.85      -17.15      
504.53125   -2.31       -59.19      -33.58      -17.27      
504.5875    -2.37       -68.58      -32.78      -17.26      
504.64375   -2.36       -54.77      -33.57      -17.22      
504.7       -2.39       -58.47      -33.04      -17.18      
504.75625   -2.34       -63.57      -33.35      -17.31      
504.8125    -2.38       -68.09      -33.09      -17.08      
504.86875   -2.35       -67.96      -33.26      -17.26      
504.925     -2.41       -65.8       -33.34      -17.24      
504.98125   -2.34       -63.58      -33.82      -17.26      
505.0375    -2.37       -59.88      -33.11      -17.18      
505.09375   -2.38       -57.04      -33.6       -17.27      
505.15      -2.42       -53.94      -32.77      -17.11      
505.20625   -2.37       -57.23      -33.76      -17.33      
505.2625    -2.4        -59.77      -32.8       -17.17      
505.31875   -2.35       -55.78      -33.68      -17.34      
505.375     -2.42       -56.5       -33.08      -17.2       
505.43125   -2.38       -58.99      -33.98      -17.22      
505.4875    -2.41       -60.55      -32.92      -17.27      
505.54375   -2.41       -74.06      -34.0       -17.39      
505.6       -2.44       -56.64      -32.78      -17.19      
505.65625   -2.43       -56.37      -33.15      -17.33      
505.7125    -2.43       -56.41      -32.63      -17.17      
505.76875   -2.39       -67.7       -33.43      -17.36      
505.825     -2.43       -55.79      -32.49      -17.27      
505.88125   -2.41       -57.71      -33.15      -17.3       
505.9375    -2.46       -64.1       -32.51      -17.14      
505.99375   -2.45       -61.61      -32.92      -17.32      
506.05      -2.48       -67.8       -32.44      -17.3       
506.10625   -2.43       -58.35      -33.13      -17.39      
506.1625    -2.48       -57.95      -32.99      -17.2       
506.21875   -2.42       -66.5       -33.25      -17.31      
506.275     -2.47       -70.66      -32.9       -17.09      
506.33125   -2.4        -56.98      -33.32      -17.38      
506.3875    -2.52       -57.09      -33.2       -17.38      
506.44375   -2.43       -70.39      -32.87      -17.23      
506.5       -2.45       -61.56      -32.31      -17.28      
506.55625   -2.41       -57.5       -32.89      -17.37      
506.6125    -2.52       -59.12      -32.05      -17.23      
506.66875   -2.44       -55.17      -32.39      -17.29      
506.725     -2.51       -59.18      -32.31      -17.25      
506.78125   -2.45       -63.63      -32.37      -17.32      
506.8375    -2.52       -62.95      -32.45      -17.3       
506.89375   -2.49       -51.95      -33.03      -17.53      
506.95      -2.53       -51.69      -32.64      -17.24      
507.00625   -2.47       -53.56      -32.69      -17.44      
507.0625    -2.57       -58.83      -31.88      -17.21      
507.11875   -2.52       -62.61      -32.8       -17.38      
507.175     -2.54       -57.23      -32.88      -17.25      
507.23125   -2.54       -53.71      -32.83      -17.3       
507.2875    -2.57       -58.66      -32.43      -17.21      
507.34375   -2.51       -55.33      -32.46      -17.34      
507.4       -2.57       -69.03      -32.14      -17.16      
507.45625   -2.5        -62.6       -32.84      -17.37      
507.5125    -2.57       -58.33      -32.6       -17.25      
507.56875   -2.51       -66.13      -32.7       -17.4       
507.625     -2.55       -68.24      -32.41      -17.3       
507.68125   -2.53       -51.19      -32.83      -17.43      
507.7375    -2.62       -68.44      -32.51      -17.24      
507.79375   -2.55       -58.88      -32.16      -17.38      
507.85      -2.64       -62.08      -32.25      -17.18      
507.90625   -2.54       -57.6       -32.44      -17.38      
507.9625    -2.6        -52.54      -31.98      -17.27      
508.01875   -2.58       -62.07      -31.64      -17.4       
508.075     -2.64       -57.58      -32.34      -17.28      
508.13125   -2.59       -62.22      -32.12      -17.39      
508.1875    -2.62       -61.58      -32.51      -17.21      
508.24375   -2.59       -63.6       -32.58      -17.42      
508.3       -2.64       -61.82      -31.9       -17.31      
508.35625   -2.56       -53.04      -32.27      -17.39      
508.4125    -2.67       -59.67      -32.14      -17.34      
508.46875   -2.59       -55.16      -32.21      -17.42      
508.525     -2.68       -57.05      -31.82      -17.26      
508.58125   -2.59       -60.56      -31.75      -17.4       
508.6375    -2.64       -57.98      -32.49      -17.28      
508.69375   -2.62       -60.82      -32.37      -17.4       
508.75      -2.68       -58.4       -32.67      -17.3       
508.80625   -2.59       -55.91      -32.99      -17.45      
508.8625    -2.67       -61.89      -32.3       -17.47      
508.91875   -2.58       -64.2       -32.81      -17.51      
508.975     -2.64       -55.11      -32.19      -17.35      
509.03125   -2.6        -60.19      -32.82      -17.49      
509.0875    -2.66       -67.48      -32.66      -17.23      
509.14375   -2.65       -68.03      -33.18      -17.46      
509.2       -2.7        -61.53      -33.1       -17.27      
509.25625   -2.67       -66.21      -32.7       -17.47      
509.3125    -2.71       -59.58      -32.82      -17.34      
509.36875   -2.68       -56.76      -32.59      -17.47      
509.425     -2.7        -68.78      -32.49      -17.3       
509.48125   -2.72       -61.65      -32.69      -17.41      
509.5375    -2.75       -63.65      -32.85      -17.4       
509.59375   -2.67       -68.07      -32.97      -17.43      
509.65      -2.71       -69.59      -32.49      -17.35      
509.70625   -2.67       -66.76      -32.48      -17.46      
509.7625    -2.7        -59.36      -33.07      -17.27      
509.81875   -2.69       -61.4       -32.48      -17.42      
509.875     -2.69       -57.25      -33.08      -17.37      
509.93125   -2.66       -65.57      -33.12      -17.44      
509.9875    -2.73       -62.8       -32.94      -17.37      
510.04375   -2.67       -62.12      -33.48      -17.43      
510.1       -2.72       -55.95      -33.14      -17.34      
510.15625   -2.65       -56.14      -32.9       -17.5       
510.2125    -2.7        -55.41      -32.87      -17.24      
510.26875   -2.68       -59.28      -32.46      -17.45      
510.325     -2.73       -57.03      -33.2       -17.31      
510.38125   -2.69       -64.03      -32.76      -17.41      
510.4375    -2.77       -51.92      -33.18      -17.37      
510.49375   -2.7        -55.61      -33.25      -17.47      
510.55      -2.73       -65.81      -33.54      -17.3       
510.60625   -2.73       -56.3       -33.18      -17.5       
510.6625    -2.78       -68.87      -33.27      -17.33      
510.71875   -2.73       -55.15      -33.45      -17.41      
510.775     -2.8        -59.0       -33.64      -17.49      
510.83125   -2.72       -67.02      -33.42      -17.48      
510.8875    -2.77       -65.12      -34.05      -17.31      
510.94375   -2.75       -56.58      -32.59      -17.42      
511.0       -2.78       -67.75      -33.91      -17.28      
511.05625   -2.67       -58.46      -33.3       -17.52      
511.1125    -2.72       -54.28      -34.14      -17.33      
511.16875   -2.67       -61.54      -33.54      -17.36      
511.225     -2.71       -56.51      -34.79      -17.32      
511.28125   -2.71       -57.4       -33.56      -17.62      
511.3375    -2.76       -63.02      -34.04      -17.39      
511.39375   -2.69       -69.51      -33.87      -17.42      
511.45      -2.74       -60.24      -34.44      -17.28      
511.50625   -2.71       -62.95      -33.74      -17.52      
511.5625    -2.74       -59.77      -34.17      -17.39      
511.61875   -2.75       -61.34      -33.42      -17.48      
511.675     -2.77       -57.85      -34.53      -17.4       
511.73125   -2.7        -71.43      -34.06      -17.52      
511.7875    -2.75       -55.36      -34.78      -17.37      
511.84375   -2.68       -62.56      -34.17      -17.46      
511.9       -2.75       -67.77      -34.25      -17.39      
511.95625   -2.71       -50.94      -34.36      -17.5       
512.0125    -2.77       -54.69      -34.54      -17.55      
512.06875   -2.72       -81.4       -34.86      -17.5       
512.125     -2.73       -62.32      -35.03      -17.34      
512.18125   -2.73       -55.17      -34.42      -17.61      
512.2375    -2.79       -56.59      -34.63      -17.37      
512.29375   -2.77       -77.33      -34.48      -17.54      
512.35      -2.78       -55.94      -35.34      -17.28      
512.40625   -2.72       -57.17      -34.59      -17.4       
512.4625    -2.77       -63.76      -34.93      -17.44      
512.51875   -2.71       -56.52      -34.65      -17.56      
512.575     -2.75       -61.28      -35.47      -17.49      
512.63125   -2.67       -56.7       -34.83      -17.59      
512.6875    -2.75       -74.03      -35.68      -17.47      
512.74375   -2.7        -65.95      -34.68      -17.45      
512.8       -2.75       -57.99      -35.83      -17.43      
512.85625   -2.7        -55.73      -35.25      -17.54      
512.9125    -2.77       -59.09      -36.42      -17.42      
512.96875   -2.73       -56.41      -35.13      -17.55      
513.025     -2.75       -53.76      -36.3       -17.43      
513.08125   -2.76       -62.56      -35.59      -17.57      
513.1375    -2.76       -55.91      -36.31      -17.5       
513.19375   -2.73       -56.29      -35.81      -17.67      
513.25      -2.72       -54.88      -36.11      -17.44      
513.30625   -2.72       -63.88      -36.04      -17.53      
513.3625    -2.73       -60.4       -36.27      -17.43      
513.41875   -2.7        -73.73      -35.77      -17.54      
513.475     -2.74       -59.41      -36.54      -17.43      
513.53125   -2.75       -57.58      -36.08      -17.55      
513.5875    -2.74       -62.96      -37.64      -17.52      
513.64375   -2.69       -60.53      -36.04      -17.64      
513.7       -2.71       -63.36      -36.89      -17.44      
513.75625   -2.72       -63.68      -36.59      -17.62      
513.8125    -2.72       -60.89      -36.96      -17.57      
513.86875   -2.71       -58.49      -36.31      -17.64      
513.925     -2.73       -58.2       -36.67      -17.44      
513.98125   -2.74       -62.7       -36.14      -17.62      
514.0375    -2.76       -59.96      -37.19      -17.47      
514.09375   -2.7        -60.04      -36.97      -17.48      
514.15      -2.76       -55.73      -37.19      -17.44      
514.20625   -2.75       -56.21      -36.18      -17.41      
514.2625    -2.81       -54.39      -38.05      -17.53      
514.31875   -2.76       -63.74      -37.1       -17.55      
514.375     -2.76       -59.33      -37.68      -17.38      
514.43125   -2.72       -51.81      -37.11      -17.65      
514.4875    -2.76       -64.91      -38.34      -17.52      
514.54375   -2.69       -62.19      -37.09      -17.49      
514.6       -2.75       -66.72      -37.74      -17.44      
514.65625   -2.72       -75.82      -37.99      -17.59      
514.7125    -2.77       -64.73      -38.44      -17.46      
514.76875   -2.7        -59.57      -36.74      -17.67      
514.825     -2.76       -56.32      -38.47      -17.47      
514.88125   -2.72       -64.82      -37.94      -17.55      
514.9375    -2.73       -54.96      -38.83      -17.48      
514.99375   -2.78       -56.04      -39.16      -17.44      
515.05      -2.75       -64.62      -39.45      -17.56      
515.10625   -2.73       -64.22      -39.12      -17.7       
515.1625    -2.77       -54.05      -39.44      -17.5       
515.21875   -2.76       -58.48      -38.25      -17.5       
515.275     -2.77       -57.33      -39.26      -17.38      
515.33125   -2.71       -60.38      -39.16      -17.52      
515.3875    -2.74       -54.28      -39.09      -17.56      
515.44375   -2.7        -58.42      -39.43      -17.59      
515.5       -2.72       -58.83      -39.51      -17.62      
515.55625   -2.66       -56.99      -39.22      -17.61      
515.6125    -2.67       -72.14      -39.58      -17.41      
515.66875   -2.67       -64.04      -39.43      -17.7       
515.725     -2.69       -56.16      -39.9       -17.62      
515.78125   -2.7        -57.64      -39.82      -17.58      
515.8375    -2.72       -67.94      -38.89      -17.58      
515.89375   -2.71       -58.24      -38.89      -17.64      
515.95      -2.75       -59.2       -39.59      -17.61      
516.00625   -2.76       -54.04      -39.67      -17.65      
516.0625    -2.74       -71.15      -40.54      -17.42      
516.11875   -2.7        -64.34      -41.18      -17.54      
516.175     -2.72       -62.64      -39.85      -17.53      
516.23125   -2.73       -64.46      -40.15      -17.55      
516.2875    -2.74       -58.05      -40.6       -17.59      
516.34375   -2.72       -58.57      -39.61      -17.61      
516.4       -2.72       -57.23      -40.81      -17.57      
516.45625   -2.72       -57.89      -41.52      -17.48      
516.5125    -2.76       -56.42      -41.24      -17.48      
516.56875   -2.71       -58.87      -41.44      -17.54      
516.625     -2.73       -57.08      -41.55      -17.65      
516.68125   -2.72       -71.77      -43.53      -17.62      
516.7375    -2.74       -55.88      -41.39      -17.7       
516.79375   -2.76       -60.09      -41.13      -17.55      
516.85      -2.75       -68.44      -42.11      -17.69      
516.90625   -2.72       -57.24      -42.22      -17.64      
516.9625    -2.73       -66.12      -42.13      -17.49      
517.01875   -2.71       -57.54      -43.4       -17.67      
517.075     -2.75       -61.73      -41.66      -17.59      
517.13125   -2.73       -76.64      -44.07      -17.62      
517.1875    -2.7        -57.71      -42.53      -17.54      
517.24375   -2.72       -63.64      -43.68      -17.48      
517.3       -2.7        -59.09      -41.38      -17.53      
517.35625   -2.68       -58.22      -44.52      -17.51      
517.4125    -2.71       -56.53      -43.27      -17.74      
517.46875   -2.67       -62.53      -45.43      -17.74      
517.525     -2.72       -59.3       -44.91      -17.55      
517.58125   -2.64       -58.93      -44.34      -17.62      
517.6375    -2.68       -56.06      -44.49      -17.6       
517.69375   -2.7        -54.96      -44.22      -17.51      
517.75      -2.68       -61.77      -43.09      -17.66      
517.80625   -2.72       -54.23      -45.15      -17.56      
517.8625    -2.71       -64.52      -41.91      -17.59      
517.91875   -2.71       -60.68      -44.85      -17.55      
517.975     -2.73       -61.03      -43.76      -17.56      
518.03125   -2.73       -58.54      -44.69      -17.62      
518.0875    -2.73       -58.68      -44.86      -17.57      
518.14375   -2.68       -59.04      -45.26      -17.66      
518.2       -2.7        -56.68      -44.01      -17.7       
518.25625   -2.68       -55.14      -45.12      -17.64      
518.3125    -2.66       -67.25      -45.87      -17.77      
518.36875   -2.7        -64.34      -44.9       -17.58      
518.425     -2.72       -61.83      -45.2       -17.68      
518.48125   -2.73       -63.69      -48.22      -17.74      
518.5375    -2.71       -52.92      -45.44      -17.66      
518.59375   -2.68       -54.01      -49.06      -17.55      
518.65      -2.71       -58.66      -46.07      -17.62      
518.70625   -2.73       -57.71      -50.78      -17.77      
518.7625    -2.72       -56.68      -48.91      -17.62      
518.81875   -2.74       -55.01      -49.45      -17.69      
518.875     -2.72       -66.78      -46.78      -17.73      
518.93125   -2.72       -58.89      -52.13      -17.69      
518.9875    -2.72       -67.48      -48.35      -17.75      
519.04375   -2.68       -56.33      -52.56      -17.61      
519.1       -2.7        -58.38      -47.65      -17.79      
519.15625   -2.7        -67.0       -52.46      -17.6       
519.2125    -2.74       -61.31      -46.41      -17.6       
519.26875   -2.69       -67.98      -51.54      -17.58      
519.325     -2.68       -53.56      -48.03      -17.86      
519.38125   -2.7        -56.59      -50.07      -17.69      
519.4375    -2.69       -54.9       -50.13      -17.75      
519.49375   -2.7        -73.32      -50.91      -17.58      
519.55      -2.72       -56.3       -49.42      -17.66      
519.60625   -2.7        -65.07      -56.62      -17.62      
519.6625    -2.7        -64.88      -46.77      -17.76      
519.71875   -2.7        -60.33      -53.23      -17.61      
519.775     -2.74       -58.61      -48.27      -17.69      
519.83125   -2.7        -60.67      -51.77      -17.64      
519.8875    -2.66       -53.94      -47.7       -17.61      
519.94375   -2.66       -59.05      -57.29      -17.64      
520.0       -2.7        -62.84      -50.81      -17.66      
