TESTE DA PLACA: RFFE

Operador: Fernando
Numero de Serie: 11111111
RFFE Software Version: V2_0002
RFFE - IP: 10.0.18.9
RFFE - Communication: OK
Start Time: 23-02-2017 20:52:50
End Time: 23-02-2017 20:52:50
Duracao do Teste: 6.609 min

Set-up Info:
Network Analyzer Model: E5062A
Network Analyzer - IP: 10.0.18.20
Network Analyzer - Communication: OK
Waveform Generator Model: 33500B
Waveform Generator - IP: 10.0.18.13
Waveform Generator - Communication: OK
RF Switch Model: RC-2SP4T-A18
RF Switch1 - IP: 10.0.18.12
RF Switch1 - Communication: OK
RF Switch2 - IP: 10.0.18.15
RF Switch2 - Communication: OK
DC Power Supply Model: 6626A

RESULTS:

RFFE Ch: 2-1

Freq [MHz]  S11 [dB]    S12 [dB]    S21 [dB]    S22 [dB]    
430.0       -2.61       -55.39      -53.79      -18.02      
430.05625   -2.63       -62.73      -58.92      -18.08      
430.1125    -2.59       -64.31      -60.62      -17.94      
430.16875   -2.58       -66.37      -59.06      -17.93      
430.225     -2.63       -60.4       -54.42      -17.84      
430.28125   -2.62       -55.49      -59.91      -17.92      
430.3375    -2.62       -65.18      -61.48      -17.85      
430.39375   -2.64       -57.26      -71.4       -17.97      
430.45      -2.6        -59.23      -56.7       -17.86      
430.50625   -2.63       -58.41      -64.85      -17.86      
430.5625    -2.62       -59.31      -62.62      -17.87      
430.61875   -2.66       -73.47      -58.6       -17.89      
430.675     -2.66       -60.14      -63.28      -17.87      
430.73125   -2.67       -54.3       -82.84      -17.87      
430.7875    -2.66       -57.69      -63.43      -17.85      
430.84375   -2.63       -58.37      -55.98      -17.87      
430.9       -2.63       -53.07      -64.39      -17.94      
430.95625   -2.67       -56.83      -60.55      -17.76      
431.0125    -2.69       -58.47      -60.54      -17.76      
431.06875   -2.7        -56.64      -63.28      -17.84      
431.125     -2.66       -60.96      -65.85      -17.87      
431.18125   -2.66       -60.05      -66.56      -17.9       
431.2375    -2.66       -56.72      -69.43      -17.86      
431.29375   -2.66       -54.9       -56.17      -17.92      
431.35      -2.62       -79.08      -73.63      -17.74      
431.40625   -2.65       -59.83      -64.76      -17.84      
431.4625    -2.65       -64.89      -54.92      -17.76      
431.51875   -2.65       -52.57      -66.13      -17.74      
431.575     -2.65       -56.96      -56.66      -17.78      
431.63125   -2.69       -58.18      -56.3       -17.77      
431.6875    -2.67       -55.95      -60.9       -17.87      
431.74375   -2.66       -55.26      -58.7       -17.89      
431.8       -2.68       -58.66      -59.57      -17.77      
431.85625   -2.68       -61.33      -57.51      -17.79      
431.9125    -2.65       -60.83      -71.45      -17.72      
431.96875   -2.74       -84.75      -53.95      -17.72      
432.025     -2.71       -53.15      -52.51      -17.74      
432.08125   -2.67       -63.47      -54.44      -17.9       
432.1375    -2.68       -57.55      -61.26      -17.76      
432.19375   -2.72       -61.79      -63.85      -17.86      
432.25      -2.72       -58.82      -63.47      -17.64      
432.30625   -2.73       -60.66      -58.95      -17.67      
432.3625    -2.73       -65.84      -65.77      -17.83      
432.41875   -2.76       -58.11      -55.67      -17.78      
432.475     -2.71       -57.31      -58.91      -17.73      
432.53125   -2.73       -62.31      -62.37      -17.84      
432.5875    -2.72       -61.42      -53.62      -17.81      
432.64375   -2.69       -59.26      -60.85      -17.74      
432.7       -2.7        -59.61      -56.43      -17.65      
432.75625   -2.71       -66.92      -66.32      -17.92      
432.8125    -2.7        -56.4       -54.0       -17.62      
432.86875   -2.77       -64.86      -64.58      -17.66      
432.925     -2.67       -62.45      -63.93      -17.72      
432.98125   -2.73       -55.68      -57.08      -17.87      
433.0375    -2.72       -53.48      -59.33      -17.73      
433.09375   -2.72       -58.06      -55.54      -17.78      
433.15      -2.75       -54.28      -51.8       -17.7       
433.20625   -2.78       -60.11      -59.38      -17.71      
433.2625    -2.78       -65.85      -69.24      -17.77      
433.31875   -2.77       -68.91      -61.6       -17.72      
433.375     -2.81       -62.45      -74.43      -17.75      
433.43125   -2.82       -58.13      -58.23      -17.81      
433.4875    -2.83       -63.23      -79.29      -17.62      
433.54375   -2.82       -58.2       -56.63      -17.66      
433.6       -2.83       -56.9       -73.63      -17.79      
433.65625   -2.84       -57.82      -56.97      -17.74      
433.7125    -2.79       -64.3       -64.08      -17.65      
433.76875   -2.83       -53.43      -61.65      -17.63      
433.825     -2.85       -53.55      -59.62      -17.6       
433.88125   -2.82       -67.27      -60.45      -17.77      
433.9375    -2.81       -71.73      -63.14      -17.88      
433.99375   -2.78       -66.0       -60.26      -17.66      
434.05      -2.77       -56.72      -69.82      -17.76      
434.10625   -2.76       -57.6       -60.61      -17.66      
434.1625    -2.77       -59.1       -73.63      -17.67      
434.21875   -2.81       -56.34      -60.04      -17.61      
434.275     -2.74       -55.87      -60.07      -17.83      
434.33125   -2.81       -57.47      -57.14      -17.7       
434.3875    -2.77       -62.6       -61.12      -17.63      
434.44375   -2.76       -57.37      -66.97      -17.71      
434.5       -2.74       -63.07      -55.95      -17.66      
434.55625   -2.79       -52.86      -54.66      -17.69      
434.6125    -2.78       -63.24      -61.61      -17.65      
434.66875   -2.76       -65.27      -61.74      -17.73      
434.725     -2.76       -55.75      -58.0       -17.72      
434.78125   -2.8        -61.68      -58.99      -17.71      
434.8375    -2.76       -58.46      -55.65      -17.61      
434.89375   -2.81       -56.78      -59.66      -17.72      
434.95      -2.79       -61.66      -59.8       -17.69      
435.00625   -2.75       -53.88      -55.2       -17.67      
435.0625    -2.75       -63.44      -65.25      -17.73      
435.11875   -2.76       -59.83      -58.17      -17.57      
435.175     -2.75       -59.02      -53.15      -17.53      
435.23125   -2.75       -58.24      -61.3       -17.77      
435.2875    -2.76       -60.79      -61.96      -17.71      
435.34375   -2.72       -61.99      -63.42      -17.66      
435.4       -2.67       -60.49      -59.01      -17.71      
435.45625   -2.71       -73.32      -64.38      -17.78      
435.5125    -2.68       -67.19      -67.48      -17.6       
435.56875   -2.72       -58.34      -51.05      -17.7       
435.625     -2.67       -64.45      -62.48      -17.61      
435.68125   -2.7        -58.48      -77.96      -17.58      
435.7375    -2.7        -53.7       -58.65      -17.63      
435.79375   -2.76       -62.0       -53.55      -17.55      
435.85      -2.72       -55.7       -58.05      -17.59      
435.90625   -2.75       -54.59      -62.04      -17.59      
435.9625    -2.75       -57.68      -64.44      -17.44      
436.01875   -2.75       -78.16      -58.07      -17.6       
436.075     -2.75       -84.65      -62.26      -17.69      
436.13125   -2.8        -66.05      -57.15      -17.58      
436.1875    -2.82       -56.17      -60.1       -17.67      
436.24375   -2.82       -64.29      -59.46      -17.62      
436.3       -2.9        -62.95      -65.18      -17.64      
436.35625   -2.84       -72.79      -63.04      -17.64      
436.4125    -2.79       -66.34      -63.08      -17.57      
436.46875   -2.87       -51.01      -72.0       -17.6       
436.525     -2.81       -61.89      -57.31      -17.62      
436.58125   -2.85       -53.5       -58.68      -17.68      
436.6375    -2.85       -60.6       -59.68      -17.6       
436.69375   -2.94       -61.48      -54.64      -17.5       
436.75      -2.9        -64.03      -61.96      -17.47      
436.80625   -2.94       -64.18      -58.04      -17.7       
436.8625    -2.92       -53.81      -56.85      -17.59      
436.91875   -3.0        -52.57      -59.27      -17.56      
436.975     -2.97       -56.0       -70.12      -17.58      
437.03125   -3.02       -60.23      -53.66      -17.79      
437.0875    -2.96       -60.64      -57.92      -17.64      
437.14375   -3.01       -56.49      -58.89      -17.62      
437.2       -3.01       -59.97      -58.73      -17.63      
437.25625   -3.05       -62.64      -59.67      -17.67      
437.3125    -3.02       -59.64      -55.21      -17.51      
437.36875   -3.04       -59.36      -63.72      -17.6       
437.425     -3.06       -54.71      -61.38      -17.67      
437.48125   -3.08       -63.58      -62.54      -17.51      
437.5375    -3.04       -59.31      -67.75      -17.45      
437.59375   -3.04       -63.24      -61.34      -17.51      
437.65      -3.03       -71.55      -60.74      -17.57      
437.70625   -3.01       -51.99      -53.68      -17.63      
437.7625    -2.93       -66.88      -57.95      -17.59      
437.81875   -2.95       -58.13      -57.25      -17.46      
437.875     -2.88       -58.14      -62.54      -17.59      
437.93125   -2.91       -58.23      -58.17      -17.47      
437.9875    -2.83       -67.73      -58.17      -17.51      
438.04375   -2.9        -52.61      -57.75      -17.49      
438.1       -2.83       -54.56      -60.56      -17.37      
438.15625   -2.91       -54.52      -68.48      -17.44      
438.2125    -2.81       -64.79      -92.06      -17.58      
438.26875   -2.82       -57.84      -79.07      -17.57      
438.325     -2.83       -54.4       -63.88      -17.45      
438.38125   -2.78       -53.51      -56.13      -17.66      
438.4375    -2.78       -54.73      -57.09      -17.46      
438.49375   -2.76       -61.31      -57.66      -17.52      
438.55      -2.76       -59.98      -53.03      -17.5       
438.60625   -2.79       -65.35      -60.8       -17.53      
438.6625    -2.81       -59.02      -67.76      -17.5       
438.71875   -2.82       -67.95      -55.99      -17.41      
438.775     -2.76       -61.88      -56.26      -17.47      
438.83125   -2.81       -57.22      -69.45      -17.59      
438.8875    -2.81       -64.56      -59.67      -17.5       
438.94375   -2.84       -61.28      -50.2       -17.62      
439.0       -2.8        -59.15      -63.13      -17.47      
439.05625   -2.84       -57.9       -57.85      -17.62      
439.1125    -2.79       -65.18      -67.14      -17.49      
439.16875   -2.77       -52.76      -52.27      -17.57      
439.225     -2.77       -63.48      -68.31      -17.49      
439.28125   -2.79       -60.48      -57.77      -17.59      
439.3375    -2.79       -54.59      -59.4       -17.43      
439.39375   -2.81       -62.85      -58.49      -17.57      
439.45      -2.8        -61.79      -56.08      -17.56      
439.50625   -2.83       -59.86      -57.81      -17.59      
439.5625    -2.8        -61.72      -63.53      -17.36      
439.61875   -2.84       -61.98      -65.96      -17.57      
439.675     -2.87       -58.73      -56.1       -17.43      
439.73125   -2.86       -65.22      -65.35      -17.45      
439.7875    -2.87       -56.04      -65.28      -17.53      
439.84375   -2.97       -59.19      -55.66      -17.45      
439.9       -2.88       -62.13      -83.82      -17.51      
439.95625   -2.98       -61.8       -54.53      -17.54      
440.0125    -2.95       -57.86      -61.16      -17.29      
440.06875   -2.98       -56.87      -58.58      -17.37      
440.125     -2.97       -60.97      -54.65      -17.42      
440.18125   -3.01       -62.79      -69.26      -17.46      
440.2375    -3.0        -56.4       -63.44      -17.5       
440.29375   -3.04       -58.92      -58.63      -17.56      
440.35      -3.0        -59.99      -60.43      -17.38      
440.40625   -3.07       -60.31      -60.8       -17.48      
440.4625    -3.03       -58.01      -59.63      -17.39      
440.51875   -3.05       -62.18      -55.93      -17.39      
440.575     -3.0        -61.02      -60.54      -17.46      
440.63125   -2.96       -58.42      -55.16      -17.49      
440.6875    -2.97       -52.18      -52.86      -17.43      
440.74375   -2.98       -67.33      -60.96      -17.5       
440.8       -2.98       -64.76      -54.22      -17.53      
440.85625   -3.06       -62.35      -54.29      -17.45      
440.9125    -2.98       -62.66      -55.45      -17.26      
440.96875   -3.06       -66.08      -56.19      -17.45      
441.025     -3.03       -61.25      -60.07      -17.46      
441.08125   -3.01       -60.49      -56.28      -17.37      
441.1375    -3.01       -60.11      -64.89      -17.48      
441.19375   -3.02       -52.89      -55.51      -17.5       
441.25      -2.99       -53.04      -63.7       -17.44      
441.30625   -2.99       -57.87      -57.0       -17.47      
441.3625    -2.98       -54.44      -60.23      -17.39      
441.41875   -2.98       -58.65      -66.43      -17.49      
441.475     -2.99       -62.05      -57.65      -17.46      
441.53125   -2.92       -56.62      -58.61      -17.42      
441.5875    -2.9        -57.77      -53.7       -17.45      
441.64375   -2.87       -55.87      -53.92      -17.47      
441.7       -2.87       -60.55      -61.42      -17.36      
441.75625   -2.92       -56.66      -53.23      -17.43      
441.8125    -2.85       -57.64      -76.81      -17.38      
441.86875   -2.83       -67.11      -68.73      -17.43      
441.925     -2.82       -60.75      -60.73      -17.41      
441.98125   -2.79       -52.54      -62.26      -17.42      
442.0375    -2.79       -56.42      -64.64      -17.43      
442.09375   -2.8        -50.76      -64.97      -17.37      
442.15      -2.78       -57.61      -64.96      -17.52      
442.20625   -2.77       -60.04      -53.2       -17.48      
442.2625    -2.76       -58.48      -61.2       -17.38      
442.31875   -2.73       -61.26      -52.5       -17.42      
442.375     -2.79       -55.85      -68.06      -17.5       
442.43125   -2.84       -55.17      -54.52      -17.46      
442.4875    -2.82       -62.22      -61.31      -17.44      
442.54375   -2.75       -63.09      -60.02      -17.44      
442.6       -2.79       -59.92      -66.2       -17.5       
442.65625   -2.77       -55.4       -61.43      -17.27      
442.7125    -2.78       -61.14      -76.29      -17.32      
442.76875   -2.74       -71.64      -55.88      -17.4       
442.825     -2.73       -56.35      -57.82      -17.42      
442.88125   -2.78       -54.53      -54.11      -17.35      
442.9375    -2.78       -57.84      -53.77      -17.5       
442.99375   -2.7        -67.71      -61.31      -17.36      
443.05      -2.74       -64.24      -60.92      -17.28      
443.10625   -2.72       -63.48      -61.44      -17.47      
443.1625    -2.7        -60.3       -71.22      -17.44      
443.21875   -2.74       -58.87      -61.35      -17.51      
443.275     -2.7        -58.72      -64.47      -17.37      
443.33125   -2.72       -60.38      -60.86      -17.43      
443.3875    -2.69       -54.98      -68.66      -17.23      
443.44375   -2.75       -52.29      -53.56      -17.51      
443.5       -2.73       -59.66      -57.13      -17.26      
443.55625   -2.7        -60.13      -57.8       -17.37      
443.6125    -2.74       -52.81      -59.52      -17.38      
443.66875   -2.74       -54.66      -56.03      -17.23      
443.725     -2.74       -59.18      -62.24      -17.18      
443.78125   -2.78       -69.21      -61.63      -17.34      
443.8375    -2.78       -55.06      -62.86      -17.32      
443.89375   -2.75       -56.91      -61.43      -17.33      
443.95      -2.76       -59.21      -81.89      -17.27      
444.00625   -2.81       -61.29      -58.01      -17.32      
444.0625    -2.78       -56.86      -64.03      -17.28      
444.11875   -2.82       -63.82      -54.26      -17.37      
444.175     -2.82       -52.57      -78.88      -17.38      
444.23125   -2.8        -63.45      -59.81      -17.46      
444.2875    -2.82       -64.24      -59.43      -17.29      
444.34375   -2.83       -61.44      -75.86      -17.26      
444.4       -2.87       -56.59      -65.82      -17.39      
444.45625   -2.82       -62.22      -58.48      -17.52      
444.5125    -2.83       -53.69      -55.03      -17.24      
444.56875   -2.82       -60.78      -61.62      -17.4       
444.625     -2.81       -62.95      -54.5       -17.28      
444.68125   -2.78       -56.13      -60.47      -17.34      
444.7375    -2.8        -53.27      -60.89      -17.36      
444.79375   -2.75       -66.57      -57.3       -17.39      
444.85      -2.75       -52.5       -61.99      -17.43      
444.90625   -2.77       -61.78      -61.0       -17.33      
444.9625    -2.75       -80.73      -58.06      -17.28      
445.01875   -2.71       -63.85      -54.58      -17.33      
445.075     -2.73       -53.87      -54.63      -17.3       
445.13125   -2.72       -59.37      -52.92      -17.25      
445.1875    -2.72       -77.64      -65.4       -17.32      
445.24375   -2.68       -54.44      -54.32      -17.3       
445.3       -2.7        -55.44      -55.8       -17.3       
445.35625   -2.66       -56.9       -72.38      -17.33      
445.4125    -2.71       -52.06      -60.94      -17.22      
445.46875   -2.59       -56.46      -63.49      -17.41      
445.525     -2.62       -57.94      -83.82      -17.3       
445.58125   -2.59       -58.8       -80.95      -17.26      
445.6375    -2.61       -61.26      -58.99      -17.27      
445.69375   -2.6        -60.5       -62.22      -17.33      
445.75      -2.63       -55.43      -56.84      -17.25      
445.80625   -2.61       -53.53      -54.53      -17.17      
445.8625    -2.58       -68.66      -57.52      -17.29      
445.91875   -2.6        -62.83      -70.7       -17.34      
445.975     -2.53       -56.57      -72.57      -17.18      
446.03125   -2.58       -50.32      -57.41      -17.23      
446.0875    -2.59       -71.92      -56.29      -17.24      
446.14375   -2.53       -57.47      -63.81      -17.3       
446.2       -2.59       -65.67      -63.24      -17.3       
446.25625   -2.56       -55.15      -59.69      -17.27      
446.3125    -2.55       -60.94      -62.65      -17.3       
446.36875   -2.59       -65.01      -57.91      -17.24      
446.425     -2.55       -60.94      -54.95      -17.28      
446.48125   -2.56       -54.6       -55.13      -17.3       
446.5375    -2.56       -59.72      -65.33      -17.2       
446.59375   -2.55       -64.07      -55.78      -17.3       
446.65      -2.6        -54.46      -61.08      -17.15      
446.70625   -2.51       -56.99      -67.99      -17.23      
446.7625    -2.58       -62.6       -61.47      -17.2       
446.81875   -2.56       -57.06      -54.39      -17.27      
446.875     -2.55       -61.91      -62.43      -17.25      
446.93125   -2.56       -63.41      -55.99      -17.36      
446.9875    -2.58       -57.32      -62.2       -17.21      
447.04375   -2.6        -60.83      -57.23      -17.2       
447.1       -2.59       -50.09      -57.62      -17.26      
447.15625   -2.57       -55.19      -56.78      -17.22      
447.2125    -2.59       -60.76      -57.26      -17.19      
447.26875   -2.59       -56.0       -61.86      -17.15      
447.325     -2.62       -59.73      -65.16      -17.24      
447.38125   -2.59       -56.49      -55.19      -17.26      
447.4375    -2.58       -56.54      -62.31      -17.25      
447.49375   -2.61       -58.01      -69.32      -17.2       
447.55      -2.63       -68.56      -55.92      -17.09      
447.60625   -2.6        -63.92      -58.63      -17.34      
447.6625    -2.64       -67.67      -60.36      -17.12      
447.71875   -2.61       -69.39      -62.13      -17.19      
447.775     -2.62       -59.72      -61.01      -17.27      
447.83125   -2.6        -60.52      -54.28      -17.4       
447.8875    -2.57       -60.06      -54.67      -17.17      
447.94375   -2.57       -54.4       -57.36      -17.19      
448.0       -2.62       -61.56      -75.47      -17.14      
448.05625   -2.6        -59.55      -54.62      -17.12      
448.1125    -2.58       -56.08      -64.81      -17.12      
448.16875   -2.57       -68.14      -61.7       -17.34      
448.225     -2.55       -63.53      -68.75      -17.13      
448.28125   -2.56       -65.88      -60.39      -17.18      
448.3375    -2.51       -57.01      -65.37      -17.16      
448.39375   -2.52       -66.87      -57.96      -17.35      
448.45      -2.53       -57.37      -57.8       -17.15      
448.50625   -2.54       -57.99      -61.2       -17.26      
448.5625    -2.53       -58.31      -63.93      -17.12      
448.61875   -2.52       -60.67      -55.58      -17.16      
448.675     -2.53       -62.55      -52.53      -17.2       
448.73125   -2.55       -65.83      -61.47      -17.24      
448.7875    -2.52       -58.99      -63.91      -17.19      
448.84375   -2.51       -64.19      -56.58      -17.18      
448.9       -2.55       -60.27      -57.02      -17.2       
448.95625   -2.52       -61.04      -61.49      -17.26      
449.0125    -2.51       -59.06      -61.8       -17.14      
449.06875   -2.55       -57.36      -57.04      -17.21      
449.125     -2.52       -57.05      -58.69      -17.15      
449.18125   -2.47       -62.73      -62.77      -17.23      
449.2375    -2.57       -54.42      -58.08      -17.13      
449.29375   -2.53       -59.22      -57.25      -17.29      
449.35      -2.51       -53.07      -57.98      -17.14      
449.40625   -2.55       -55.16      -61.28      -17.22      
449.4625    -2.5        -58.5       -64.77      -17.12      
449.51875   -2.48       -59.26      -56.0       -17.14      
449.575     -2.56       -56.53      -53.82      -17.07      
449.63125   -2.52       -64.94      -57.69      -17.21      
449.6875    -2.51       -59.04      -56.97      -17.17      
449.74375   -2.56       -56.69      -58.14      -17.15      
449.8       -2.55       -66.87      -63.17      -17.01      
449.85625   -2.53       -65.35      -69.97      -17.18      
449.9125    -2.5        -54.09      -67.8       -17.17      
449.96875   -2.48       -62.47      -54.24      -17.14      
450.025     -2.53       -57.14      -59.83      -17.22      
450.08125   -2.51       -73.77      -59.97      -17.2       
450.1375    -2.49       -59.97      -55.51      -16.98      
450.19375   -2.55       -60.46      -60.46      -17.36      
450.25      -2.5        -61.99      -58.12      -17.11      
450.30625   -2.54       -56.24      -52.23      -17.19      
450.3625    -2.57       -58.06      -62.88      -17.12      
450.41875   -2.53       -55.82      -52.82      -17.21      
450.475     -2.52       -60.55      -64.61      -17.2       
450.53125   -2.52       -57.25      -62.58      -17.17      
450.5875    -2.54       -64.21      -57.66      -17.08      
450.64375   -2.48       -69.94      -58.91      -17.11      
450.7       -2.51       -64.18      -64.3       -17.06      
450.75625   -2.53       -71.55      -57.1       -17.27      
450.8125    -2.5        -65.37      -62.78      -17.08      
450.86875   -2.54       -56.25      -58.51      -17.24      
450.925     -2.54       -55.72      -59.76      -17.13      
450.98125   -2.51       -55.64      -54.89      -17.12      
451.0375    -2.5        -55.41      -66.3       -17.12      
451.09375   -2.53       -54.28      -66.26      -17.05      
451.15      -2.55       -57.52      -57.72      -17.07      
451.20625   -2.55       -57.15      -58.92      -17.2       
451.2625    -2.58       -52.5       -71.6       -17.07      
451.31875   -2.53       -58.76      -54.31      -17.18      
451.375     -2.56       -55.04      -61.56      -17.03      
451.43125   -2.55       -57.46      -58.75      -17.2       
451.4875    -2.54       -54.2       -59.39      -17.12      
451.54375   -2.55       -63.94      -61.91      -17.19      
451.6       -2.53       -64.09      -59.66      -17.13      
451.65625   -2.52       -51.51      -55.33      -17.2       
451.7125    -2.56       -71.33      -81.34      -16.99      
451.76875   -2.53       -68.42      -61.93      -17.2       
451.825     -2.53       -56.48      -55.79      -17.16      
451.88125   -2.55       -57.27      -63.77      -17.05      
451.9375    -2.57       -59.48      -57.71      -17.13      
451.99375   -2.52       -55.29      -62.59      -17.21      
452.05      -2.57       -75.21      -65.66      -17.23      
452.10625   -2.55       -81.3       -57.59      -17.13      
452.1625    -2.57       -64.7       -64.21      -17.14      
452.21875   -2.54       -56.09      -65.82      -17.15      
452.275     -2.59       -56.97      -56.86      -16.99      
452.33125   -2.53       -55.52      -60.95      -17.12      
452.3875    -2.56       -58.57      -64.45      -16.98      
452.44375   -2.56       -57.57      -68.37      -17.09      
452.5       -2.56       -61.0       -54.07      -17.01      
452.55625   -2.56       -59.21      -70.34      -17.15      
452.6125    -2.59       -61.62      -60.82      -17.05      
452.66875   -2.57       -59.42      -56.63      -17.06      
452.725     -2.56       -55.63      -57.96      -17.07      
452.78125   -2.56       -52.89      -88.46      -17.16      
452.8375    -2.57       -55.99      -54.06      -16.97      
452.89375   -2.53       -65.35      -59.76      -17.13      
452.95      -2.56       -57.7       -54.94      -17.09      
453.00625   -2.54       -57.72      -70.46      -17.06      
453.0625    -2.57       -58.97      -63.62      -16.94      
453.11875   -2.56       -60.64      -58.08      -17.07      
453.175     -2.57       -56.45      -66.26      -16.95      
453.23125   -2.55       -56.53      -56.27      -17.08      
453.2875    -2.63       -60.93      -55.77      -17.05      
453.34375   -2.59       -57.31      -55.84      -17.23      
453.4       -2.6        -59.25      -58.29      -17.04      
453.45625   -2.58       -57.57      -63.79      -17.07      
453.5125    -2.59       -68.2       -60.65      -17.09      
453.56875   -2.6        -68.03      -55.53      -16.91      
453.625     -2.58       -60.73      -60.92      -16.92      
453.68125   -2.59       -59.98      -57.77      -17.02      
453.7375    -2.63       -62.29      -60.35      -17.08      
453.79375   -2.63       -55.19      -65.04      -17.02      
453.85      -2.64       -58.98      -67.49      -16.97      
453.90625   -2.61       -59.36      -62.76      -16.95      
453.9625    -2.57       -70.61      -61.14      -16.91      
454.01875   -2.62       -57.9       -65.43      -17.11      
454.075     -2.66       -65.81      -83.18      -16.93      
454.13125   -2.63       -55.71      -55.89      -17.08      
454.1875    -2.66       -61.08      -66.07      -16.93      
454.24375   -2.62       -58.07      -58.89      -17.04      
454.3       -2.68       -51.35      -56.81      -16.97      
454.35625   -2.68       -58.43      -53.62      -16.92      
454.4125    -2.73       -62.71      -57.42      -17.04      
454.46875   -2.71       -62.78      -62.86      -17.04      
454.525     -2.74       -56.88      -56.72      -16.94      
454.58125   -2.75       -60.47      -55.7       -17.05      
454.6375    -2.76       -52.37      -58.15      -17.04      
454.69375   -2.85       -62.21      -60.91      -17.09      
454.75      -2.82       -53.46      -58.03      -16.89      
454.80625   -2.87       -72.37      -61.43      -16.92      
454.8625    -2.89       -61.04      -60.51      -16.96      
454.91875   -2.9        -54.75      -58.23      -17.08      
454.975     -2.93       -58.11      -64.46      -17.07      
455.03125   -2.89       -61.25      -59.04      -16.96      
455.0875    -2.88       -69.38      -58.21      -16.96      
455.14375   -2.89       -58.46      -67.98      -17.01      
455.2       -2.91       -65.39      -63.57      -17.01      
455.25625   -2.85       -66.48      -76.49      -17.08      
455.3125    -2.83       -75.63      -58.16      -16.77      
455.36875   -2.79       -63.76      -64.25      -17.0       
455.425     -2.74       -53.67      -56.68      -16.91      
455.48125   -2.78       -59.79      -65.45      -17.0       
455.5375    -2.75       -58.43      -64.74      -16.97      
455.59375   -2.73       -55.75      -66.9       -16.95      
455.65      -2.7        -69.79      -66.27      -16.81      
455.70625   -2.75       -58.83      -61.83      -16.97      
455.7625    -2.75       -62.88      -58.01      -16.85      
455.81875   -2.72       -67.23      -55.69      -16.86      
455.875     -2.72       -64.45      -59.67      -16.96      
455.93125   -2.71       -64.7       -55.23      -16.92      
455.9875    -2.73       -58.44      -59.29      -17.06      
456.04375   -2.71       -59.41      -56.12      -17.1       
456.1       -2.72       -59.52      -62.33      -17.06      
456.15625   -2.74       -56.58      -59.06      -16.92      
456.2125    -2.7        -57.1       -62.41      -16.98      
456.26875   -2.67       -55.06      -59.68      -16.88      
456.325     -2.69       -61.85      -60.78      -17.01      
456.38125   -2.68       -60.58      -61.22      -17.05      
456.4375    -2.76       -64.54      -55.92      -16.93      
456.49375   -2.72       -60.98      -62.19      -16.92      
456.55      -2.69       -70.75      -61.84      -17.01      
456.60625   -2.74       -54.34      -63.84      -16.85      
456.6625    -2.71       -65.63      -55.94      -17.04      
456.71875   -2.71       -65.04      -61.64      -16.97      
456.775     -2.76       -65.49      -58.54      -16.91      
456.83125   -2.78       -56.16      -62.92      -17.05      
456.8875    -2.75       -58.2       -61.59      -16.97      
456.94375   -2.79       -60.39      -58.25      -17.08      
457.0       -2.81       -68.23      -58.84      -16.94      
457.05625   -2.82       -64.37      -56.91      -16.94      
457.1125    -2.84       -59.6       -71.4       -16.88      
457.16875   -2.85       -52.77      -68.64      -16.99      
457.225     -2.85       -65.81      -68.21      -16.86      
457.28125   -2.92       -65.33      -55.13      -16.91      
457.3375    -2.96       -57.98      -55.56      -16.89      
457.39375   -2.93       -59.45      -60.46      -16.98      
457.45      -3.01       -66.23      -58.36      -16.86      
457.50625   -3.02       -60.67      -53.09      -16.93      
457.5625    -3.05       -61.43      -70.67      -16.91      
457.61875   -3.1        -61.98      -56.87      -17.0       
457.675     -3.14       -59.43      -63.85      -16.98      
457.73125   -3.25       -60.74      -59.6       -16.93      
457.7875    -3.25       -56.24      -59.38      -16.78      
457.84375   -3.32       -54.13      -59.41      -16.97      
457.9       -3.33       -53.21      -63.89      -16.86      
457.95625   -3.41       -66.93      -55.2       -16.88      
458.0125    -3.43       -61.1       -61.11      -16.81      
458.06875   -3.53       -61.65      -51.55      -16.99      
458.125     -3.53       -65.0       -55.23      -16.87      
458.18125   -3.57       -64.92      -56.27      -16.87      
458.2375    -3.55       -61.9       -56.02      -16.78      
458.29375   -3.54       -58.71      -64.69      -16.86      
458.35      -3.48       -60.86      -55.17      -16.84      
458.40625   -3.46       -60.99      -69.73      -16.85      
458.4625    -3.35       -59.68      -54.65      -16.9       
458.51875   -3.31       -58.09      -56.98      -16.79      
458.575     -3.2        -62.34      -57.19      -16.82      
458.63125   -3.21       -69.78      -65.67      -16.91      
458.6875    -3.13       -68.4       -56.46      -16.76      
458.74375   -3.1        -56.81      -60.12      -16.91      
458.8       -3.08       -62.01      -60.78      -16.76      
458.85625   -3.09       -55.0       -57.18      -16.96      
458.9125    -3.0        -57.77      -55.97      -16.74      
458.96875   -3.0        -60.16      -55.89      -17.0       
459.025     -2.99       -60.36      -55.99      -16.79      
459.08125   -2.99       -55.5       -55.6       -16.8       
459.1375    -2.93       -58.17      -64.88      -16.84      
459.19375   -2.97       -55.87      -62.83      -17.02      
459.25      -2.9        -67.46      -56.41      -16.92      
459.30625   -2.94       -56.13      -56.03      -16.93      
459.3625    -2.91       -67.33      -58.55      -16.83      
459.41875   -2.92       -58.06      -57.14      -16.91      
459.475     -2.92       -58.88      -62.79      -16.79      
459.53125   -2.97       -57.33      -57.97      -16.86      
459.5875    -2.94       -63.77      -70.1       -16.82      
459.64375   -2.98       -63.05      -67.13      -16.95      
459.7       -3.02       -54.31      -71.53      -16.94      
459.75625   -2.99       -58.45      -58.27      -16.85      
459.8125    -3.01       -55.64      -55.8       -16.85      
459.86875   -3.05       -59.65      -59.04      -16.99      
459.925     -3.06       -60.23      -68.81      -16.75      
459.98125   -3.13       -58.99      -59.44      -16.94      
460.0375    -3.16       -65.54      -55.26      -16.81      
460.09375   -3.27       -58.03      -59.44      -16.95      
460.15      -3.3        -60.48      -63.88      -16.82      
460.20625   -3.42       -71.42      -53.18      -16.85      
460.2625    -3.52       -57.87      -52.98      -16.81      
460.31875   -3.79       -76.34      -52.34      -16.85      
460.375     -3.98       -61.85      -53.44      -16.72      
460.43125   -4.22       -66.34      -68.91      -16.9       
460.4875    -4.36       -58.19      -60.6       -16.76      
460.54375   -4.57       -54.97      -56.61      -16.96      
460.6       -4.75       -54.58      -55.14      -16.93      
460.65625   -5.11       -61.08      -56.34      -16.98      
460.7125    -5.29       -60.82      -51.64      -16.79      
460.76875   -5.32       -58.93      -57.78      -16.95      
460.825     -4.93       -57.45      -53.12      -16.8       
460.88125   -4.29       -64.53      -76.64      -16.84      
460.9375    -3.85       -61.24      -55.64      -16.82      
460.99375   -3.56       -52.65      -55.33      -16.83      
461.05      -3.35       -59.24      -54.76      -16.82      
461.10625   -3.29       -64.16      -61.65      -16.82      
461.1625    -3.17       -54.89      -62.65      -16.84      
461.21875   -3.17       -65.19      -64.3       -17.02      
461.275     -3.13       -75.81      -64.45      -16.9       
461.33125   -3.12       -56.92      -62.65      -16.86      
461.3875    -3.1        -60.28      -61.86      -16.81      
461.44375   -3.16       -55.97      -61.64      -16.91      
461.5       -3.14       -61.55      -61.06      -16.91      
461.55625   -3.17       -55.92      -55.05      -16.83      
461.6125    -3.16       -58.99      -58.94      -16.86      
461.66875   -3.25       -63.49      -57.86      -16.86      
461.725     -3.25       -57.53      -69.48      -16.69      
461.78125   -3.3        -53.66      -58.44      -16.76      
461.8375    -3.4        -60.14      -61.56      -16.82      
461.89375   -3.41       -50.11      -56.91      -16.73      
461.95      -3.56       -58.2       -67.17      -16.81      
462.00625   -3.74       -60.76      -55.89      -16.89      
462.0625    -3.86       -57.34      -51.06      -16.74      
462.11875   -4.14       -67.11      -60.13      -16.92      
462.175     -4.4        -59.61      -54.56      -16.81      
462.23125   -4.79       -63.49      -55.55      -16.78      
462.2875    -5.28       -58.22      -49.81      -16.74      
462.34375   -5.86       -63.46      -49.98      -16.94      
462.4       -6.61       -59.85      -48.71      -16.69      
462.45625   -7.64       -68.02      -47.95      -16.89      
462.5125    -8.91       -55.1       -46.34      -16.68      
462.56875   -10.43      -63.36      -43.67      -16.78      
462.625     -12.29      -52.81      -43.66      -16.73      
462.68125   -14.27      -56.68      -41.12      -16.7       
462.7375    -16.54      -56.52      -42.9       -16.72      
462.79375   -18.25      -56.49      -40.13      -16.77      
462.85      -19.17      -67.01      -42.45      -16.81      
462.90625   -18.93      -59.14      -40.98      -16.93      
462.9625    -18.19      -68.96      -41.43      -16.69      
463.01875   -17.44      -57.22      -40.41      -16.9       
463.075     -16.84      -61.5       -41.18      -16.7       
463.13125   -16.43      -63.35      -41.02      -16.84      
463.1875    -16.17      -53.76      -43.01      -16.78      
463.24375   -16.03      -56.73      -41.25      -16.84      
463.3       -16.1       -56.1       -40.61      -16.63      
463.35625   -16.32      -59.98      -40.46      -16.83      
463.4125    -16.59      -58.88      -41.52      -16.71      
463.46875   -17.07      -57.02      -41.6       -16.71      
463.525     -17.38      -56.04      -41.35      -16.64      
463.58125   -18.18      -58.37      -40.56      -16.87      
463.6375    -18.55      -64.13      -39.94      -16.79      
463.69375   -19.43      -55.72      -39.05      -16.8       
463.75      -20.07      -59.49      -37.83      -16.64      
463.80625   -20.78      -88.91      -39.09      -16.84      
463.8625    -21.13      -61.93      -37.91      -16.68      
463.91875   -21.65      -59.11      -37.7       -16.74      
463.975     -21.68      -58.16      -37.04      -16.81      
464.03125   -21.49      -57.5       -38.38      -16.69      
464.0875    -21.16      -59.22      -36.51      -16.76      
464.14375   -20.78      -55.95      -37.5       -16.8       
464.2       -19.99      -54.81      -36.95      -16.73      
464.25625   -19.47      -54.25      -37.76      -16.78      
464.3125    -18.83      -60.08      -36.27      -16.71      
464.36875   -18.17      -61.79      -37.69      -16.77      
464.425     -17.46      -53.28      -37.5       -17.01      
464.48125   -17.11      -64.09      -36.9       -16.7       
464.5375    -16.34      -58.59      -35.89      -16.67      
464.59375   -16.04      -60.14      -36.95      -16.79      
464.65      -15.51      -65.47      -36.57      -16.64      
464.70625   -15.21      -54.47      -36.77      -16.77      
464.7625    -14.83      -60.92      -37.38      -16.71      
464.81875   -14.59      -58.57      -36.28      -16.79      
464.875     -14.24      -66.63      -36.61      -16.71      
464.93125   -14.09      -61.15      -36.98      -16.71      
464.9875    -13.67      -59.7       -36.8       -16.52      
465.04375   -13.61      -55.31      -36.19      -16.79      
465.1       -13.39      -58.53      -36.67      -16.73      
465.15625   -13.22      -61.07      -37.2       -16.8       
465.2125    -13.0       -62.66      -36.65      -16.73      
465.26875   -12.96      -61.21      -36.83      -16.8       
465.325     -12.73      -53.12      -37.55      -16.66      
465.38125   -12.73      -59.92      -37.17      -16.76      
465.4375    -12.59      -60.13      -38.23      -16.72      
465.49375   -12.59      -57.03      -37.82      -16.73      
465.55      -12.5       -66.63      -37.86      -16.68      
465.60625   -12.62      -58.22      -37.8       -16.71      
465.6625    -12.42      -61.44      -38.11      -16.76      
465.71875   -12.55      -56.72      -39.24      -16.78      
465.775     -12.47      -56.51      -38.23      -16.69      
465.83125   -12.51      -57.78      -38.24      -16.7       
465.8875    -12.58      -64.59      -38.82      -16.71      
465.94375   -12.64      -61.15      -37.77      -16.78      
466.0       -12.59      -52.85      -38.81      -16.7       
466.05625   -12.73      -65.36      -38.35      -16.82      
466.1125    -12.73      -56.95      -38.69      -16.75      
466.16875   -12.8       -55.38      -38.89      -16.68      
466.225     -12.95      -56.06      -39.08      -16.6       
466.28125   -13.0       -52.44      -37.37      -16.71      
466.3375    -13.13      -55.73      -39.3       -16.54      
466.39375   -13.18      -58.41      -37.76      -16.76      
466.45      -13.28      -58.87      -38.4       -16.75      
466.50625   -13.36      -55.77      -38.2       -16.68      
466.5625    -13.52      -73.84      -38.35      -16.86      
466.61875   -13.69      -54.13      -39.08      -16.66      
466.675     -13.82      -63.13      -39.28      -16.76      
466.73125   -14.01      -53.7       -38.53      -16.81      
466.7875    -13.96      -59.2       -39.63      -16.67      
466.84375   -14.27      -52.77      -38.15      -16.67      
466.9       -14.3       -53.45      -38.34      -16.56      
466.95625   -14.45      -61.31      -38.87      -16.69      
467.0125    -14.64      -61.93      -38.77      -16.66      
467.06875   -14.73      -63.94      -37.59      -16.78      
467.125     -14.92      -59.73      -39.51      -16.68      
467.18125   -15.18      -60.4       -38.05      -16.69      
467.2375    -15.13      -60.34      -38.69      -16.67      
467.29375   -15.38      -58.69      -36.88      -16.8       
467.35      -15.45      -58.63      -37.54      -16.72      
467.40625   -15.55      -55.55      -36.82      -16.72      
467.4625    -15.7       -56.18      -38.46      -16.55      
467.51875   -15.84      -69.25      -37.67      -16.65      
467.575     -15.89      -59.07      -37.63      -16.61      
467.63125   -16.12      -53.7       -37.01      -16.89      
467.6875    -16.01      -56.83      -37.65      -16.66      
467.74375   -16.16      -56.82      -37.16      -16.68      
467.8       -16.23      -54.36      -37.37      -16.66      
467.85625   -16.49      -54.69      -36.55      -16.8       
467.9125    -16.4       -53.95      -36.93      -16.66      
467.96875   -16.38      -60.15      -36.5       -16.66      
468.025     -16.47      -55.47      -37.29      -16.73      
468.08125   -16.5       -57.81      -37.04      -16.71      
468.1375    -16.45      -56.45      -36.95      -16.63      
468.19375   -16.39      -54.04      -35.75      -16.7       
468.25      -16.32      -54.6       -37.29      -16.67      
468.30625   -16.45      -63.05      -35.89      -16.69      
468.3625    -16.36      -68.57      -36.37      -16.54      
468.41875   -16.38      -63.14      -36.31      -16.75      
468.475     -16.31      -57.98      -36.78      -16.77      
468.53125   -16.32      -65.32      -35.43      -16.79      
468.5875    -16.24      -55.05      -36.9       -16.74      
468.64375   -16.2       -60.18      -35.37      -16.77      
468.7       -16.04      -56.63      -36.57      -16.69      
468.75625   -16.17      -52.54      -36.87      -16.59      
468.8125    -15.86      -64.5       -36.28      -16.65      
468.86875   -16.02      -58.58      -35.81      -16.67      
468.925     -15.89      -55.15      -36.28      -16.65      
468.98125   -15.94      -57.84      -36.06      -16.73      
469.0375    -15.85      -66.38      -36.05      -16.63      
469.09375   -15.88      -56.8       -35.95      -16.61      
469.15      -15.69      -57.31      -36.26      -16.59      
469.20625   -15.85      -55.37      -36.28      -16.65      
469.2625    -15.61      -54.64      -36.59      -16.56      
469.31875   -15.57      -67.35      -35.86      -16.69      
469.375     -15.51      -58.97      -35.94      -16.61      
469.43125   -15.5       -59.63      -36.71      -16.73      
469.4875    -15.39      -75.67      -36.13      -16.64      
469.54375   -15.53      -62.06      -35.96      -16.65      
469.6       -15.34      -58.16      -35.78      -16.75      
469.65625   -15.41      -61.7       -34.98      -16.72      
469.7125    -15.27      -66.11      -36.65      -16.66      
469.76875   -15.35      -53.12      -35.33      -16.68      
469.825     -15.29      -72.65      -36.43      -16.58      
469.88125   -15.48      -62.52      -35.52      -16.63      
469.9375    -15.3       -61.54      -35.8       -16.48      
469.99375   -15.35      -58.24      -35.96      -16.63      
470.05      -15.34      -52.3       -35.97      -16.59      
470.10625   -15.43      -56.31      -36.11      -16.65      
470.1625    -15.48      -55.96      -35.64      -16.57      
470.21875   -15.47      -62.68      -35.97      -16.64      
470.275     -15.4       -55.98      -35.98      -16.68      
470.33125   -15.51      -55.42      -35.77      -16.61      
470.3875    -15.57      -54.57      -36.03      -16.63      
470.44375   -15.71      -57.9       -35.38      -16.74      
470.5       -15.59      -57.45      -35.13      -16.44      
470.55625   -15.66      -57.95      -36.6       -16.56      
470.6125    -15.7       -59.16      -35.99      -16.57      
470.66875   -15.95      -63.22      -35.78      -16.69      
470.725     -15.72      -62.44      -35.55      -16.62      
470.78125   -15.98      -61.77      -36.26      -16.72      
470.8375    -15.96      -62.21      -35.41      -16.53      
470.89375   -16.07      -63.06      -36.22      -16.46      
470.95      -16.14      -56.2       -35.62      -16.66      
471.00625   -16.15      -60.2       -36.0       -16.67      
471.0625    -16.29      -59.39      -35.53      -16.62      
471.11875   -16.46      -56.52      -36.48      -16.62      
471.175     -16.35      -56.29      -35.4       -16.67      
471.23125   -16.65      -55.4       -35.94      -16.7       
471.2875    -16.62      -58.77      -35.91      -16.68      
471.34375   -16.82      -58.0       -36.02      -16.73      
471.4       -16.87      -57.64      -34.39      -16.62      
471.45625   -16.98      -53.46      -36.71      -16.6       
471.5125    -17.13      -67.02      -34.97      -16.72      
471.56875   -17.22      -59.31      -35.6       -16.61      
471.625     -17.25      -59.89      -35.26      -16.61      
471.68125   -17.37      -57.56      -35.9       -16.65      
471.7375    -17.32      -53.78      -34.84      -16.54      
471.79375   -17.47      -60.55      -35.18      -16.62      
471.85      -17.53      -62.88      -34.3       -16.59      
471.90625   -17.51      -55.08      -35.9       -16.62      
471.9625    -17.67      -57.69      -34.72      -16.66      
472.01875   -17.68      -65.01      -36.04      -16.66      
472.075     -17.59      -61.78      -35.29      -16.61      
472.13125   -17.74      -57.18      -35.88      -16.67      
472.1875    -17.69      -57.83      -34.93      -16.52      
472.24375   -17.8       -55.7       -35.77      -16.64      
472.3       -17.71      -57.56      -34.56      -16.6       
472.35625   -17.68      -64.54      -35.02      -16.66      
472.4125    -17.66      -63.43      -34.59      -16.53      
472.46875   -17.82      -65.92      -35.06      -16.51      
472.525     -17.64      -58.56      -34.96      -16.59      
472.58125   -17.8       -59.26      -35.37      -16.54      
472.6375    -17.76      -77.01      -34.1       -16.52      
472.69375   -17.7       -60.89      -34.64      -16.61      
472.75      -17.43      -64.57      -34.28      -16.6       
472.80625   -17.49      -56.84      -35.14      -16.62      
472.8625    -17.46      -70.72      -34.29      -16.52      
472.91875   -17.34      -57.5       -34.58      -16.63      
472.975     -17.18      -64.07      -33.9       -16.57      
473.03125   -17.27      -57.48      -34.32      -16.6       
473.0875    -16.94      -67.71      -33.88      -16.55      
473.14375   -17.02      -58.81      -34.1       -16.69      
473.2       -16.73      -60.29      -33.71      -16.49      
473.25625   -16.61      -56.33      -34.35      -16.62      
473.3125    -16.44      -58.93      -34.08      -16.6       
473.36875   -16.45      -63.02      -34.16      -16.62      
473.425     -16.32      -69.41      -33.24      -16.69      
473.48125   -16.11      -57.07      -33.84      -16.57      
473.5375    -15.96      -70.48      -33.13      -16.59      
473.59375   -15.82      -55.57      -33.97      -16.67      
473.65      -15.6       -56.17      -33.88      -16.51      
473.70625   -15.61      -63.51      -34.05      -16.61      
473.7625    -15.29      -52.12      -33.33      -16.47      
473.81875   -15.24      -72.21      -34.36      -16.61      
473.875     -15.0       -57.01      -33.32      -16.56      
473.93125   -14.89      -61.05      -33.58      -16.57      
473.9875    -14.6       -60.36      -33.13      -16.49      
474.04375   -14.47      -55.45      -33.48      -16.48      
474.1       -14.24      -58.89      -33.34      -16.56      
474.15625   -14.21      -58.08      -33.05      -16.59      
474.2125    -14.0       -60.43      -32.76      -16.53      
474.26875   -13.77      -60.63      -33.5       -16.74      
474.325     -13.65      -57.96      -32.58      -16.6       
474.38125   -13.53      -59.74      -32.98      -16.51      
474.4375    -13.22      -63.4       -32.54      -16.57      
474.49375   -13.24      -68.32      -32.83      -16.55      
474.55      -13.0       -61.09      -32.64      -16.49      
474.60625   -12.95      -57.81      -33.4       -16.62      
474.6625    -12.77      -58.89      -32.49      -16.62      
474.71875   -12.75      -64.16      -32.87      -16.53      
474.775     -12.56      -59.4       -32.81      -16.68      
474.83125   -12.35      -60.69      -33.2       -16.54      
474.8875    -12.22      -56.82      -32.11      -16.59      
474.94375   -12.26      -55.32      -32.65      -16.65      
475.0       -12.08      -67.7       -32.78      -16.59      
475.05625   -11.96      -54.85      -32.96      -16.56      
475.1125    -11.85      -59.61      -32.27      -16.45      
475.16875   -11.73      -62.25      -33.07      -16.55      
475.225     -11.64      -57.72      -32.48      -16.52      
475.28125   -11.62      -51.69      -32.41      -16.72      
475.3375    -11.48      -55.24      -32.53      -16.51      
475.39375   -11.33      -69.43      -32.4       -16.57      
475.45      -11.28      -73.11      -32.29      -16.55      
475.50625   -11.16      -66.21      -32.26      -16.51      
475.5625    -11.06      -67.82      -32.13      -16.53      
475.61875   -10.96      -68.69      -32.24      -16.52      
475.675     -10.9       -67.71      -32.09      -16.53      
475.73125   -10.79      -65.23      -32.39      -16.54      
475.7875    -10.63      -60.87      -32.43      -16.52      
475.84375   -10.64      -56.33      -32.38      -16.44      
475.9       -10.54      -57.49      -32.17      -16.5       
475.95625   -10.48      -60.59      -32.49      -16.55      
476.0125    -10.36      -67.53      -32.85      -16.55      
476.06875   -10.26      -56.7       -32.28      -16.61      
476.125     -10.28      -67.92      -32.89      -16.5       
476.18125   -10.13      -57.78      -32.38      -16.61      
476.2375    -10.05      -54.0       -32.74      -16.47      
476.29375   -10.07      -55.09      -32.23      -16.5       
476.35      -9.95       -55.65      -32.58      -16.58      
476.40625   -9.91       -51.65      -32.68      -16.53      
476.4625    -9.86       -61.53      -32.71      -16.6       
476.51875   -9.86       -61.06      -32.49      -16.68      
476.575     -9.74       -66.41      -32.88      -16.58      
476.63125   -9.77       -65.53      -32.37      -16.49      
476.6875    -9.68       -58.89      -32.83      -16.34      
476.74375   -9.73       -67.5       -32.15      -16.59      
476.8       -9.72       -58.37      -32.79      -16.5       
476.85625   -9.54       -63.56      -32.75      -16.57      
476.9125    -9.61       -58.71      -32.97      -16.47      
476.96875   -9.53       -56.38      -32.19      -16.5       
477.025     -9.52       -60.45      -32.7       -16.32      
477.08125   -9.44       -55.56      -32.43      -16.58      
477.1375    -9.48       -56.02      -33.19      -16.51      
477.19375   -9.45       -65.48      -32.52      -16.49      
477.25      -9.39       -68.64      -33.66      -16.5       
477.30625   -9.49       -60.47      -32.28      -16.5       
477.3625    -9.43       -61.5       -33.01      -16.5       
477.41875   -9.42       -61.47      -32.36      -16.44      
477.475     -9.36       -53.37      -33.6       -16.46      
477.53125   -9.28       -56.48      -32.61      -16.59      
477.5875    -9.37       -65.08      -33.13      -16.56      
477.64375   -9.35       -61.2       -32.87      -16.57      
477.7       -9.43       -59.01      -33.52      -16.42      
477.75625   -9.36       -61.26      -32.86      -16.54      
477.8125    -9.36       -63.06      -32.81      -16.6       
477.86875   -9.31       -57.61      -32.81      -16.52      
477.925     -9.36       -60.19      -32.96      -16.58      
477.98125   -9.32       -61.86      -32.58      -16.51      
478.0375    -9.35       -68.91      -33.42      -16.49      
478.09375   -9.35       -60.13      -33.07      -16.44      
478.15      -9.42       -58.73      -33.45      -16.48      
478.20625   -9.44       -64.51      -33.02      -16.43      
478.2625    -9.42       -63.38      -33.8       -16.47      
478.31875   -9.43       -62.82      -33.3       -16.47      
478.375     -9.51       -62.56      -33.78      -16.48      
478.43125   -9.48       -61.51      -33.61      -16.43      
478.4875    -9.52       -60.09      -34.02      -16.46      
478.54375   -9.51       -59.16      -33.24      -16.5       
478.6       -9.63       -57.95      -33.97      -16.55      
478.65625   -9.59       -55.26      -33.2       -16.59      
478.7125    -9.65       -54.85      -33.49      -16.51      
478.76875   -9.65       -54.95      -33.12      -16.56      
478.825     -9.69       -55.59      -33.93      -16.5       
478.88125   -9.76       -62.98      -33.67      -16.51      
478.9375    -9.79       -60.1       -34.12      -16.55      
478.99375   -9.81       -82.21      -33.92      -16.46      
479.05      -9.84       -61.23      -33.81      -16.43      
479.10625   -9.92       -68.37      -33.73      -16.53      
479.1625    -9.94       -71.23      -33.93      -16.51      
479.21875   -9.97       -64.28      -33.57      -16.65      
479.275     -10.06      -55.02      -34.57      -16.46      
479.33125   -10.01      -71.55      -33.7       -16.48      
479.3875    -10.18      -62.45      -35.05      -16.45      
479.44375   -10.18      -60.53      -34.12      -16.54      
479.5       -10.29      -56.69      -34.62      -16.5       
479.55625   -10.34      -61.0       -33.86      -16.49      
479.6125    -10.43      -61.75      -34.92      -16.46      
479.66875   -10.46      -60.22      -34.59      -16.5       
479.725     -10.63      -60.01      -35.11      -16.56      
479.78125   -10.6       -60.06      -33.98      -16.43      
479.8375    -10.78      -57.99      -34.69      -16.51      
479.89375   -10.81      -58.33      -34.71      -16.5       
479.95      -10.93      -56.53      -34.2       -16.47      
480.00625   -10.94      -52.83      -34.01      -16.54      
480.0625    -10.99      -65.12      -34.86      -16.46      
480.11875   -11.13      -61.87      -35.09      -16.64      
480.175     -11.28      -58.2       -35.11      -16.51      
480.23125   -11.24      -64.48      -34.93      -16.56      
480.2875    -11.43      -57.95      -34.92      -16.48      
480.34375   -11.47      -61.85      -35.24      -16.4       
480.4       -11.64      -60.41      -34.85      -16.6       
480.45625   -11.65      -61.59      -35.08      -16.52      
480.5125    -11.77      -71.72      -35.35      -16.55      
480.56875   -11.84      -66.85      -34.66      -16.42      
480.625     -11.97      -63.99      -35.01      -16.31      
480.68125   -12.15      -60.56      -35.53      -16.54      
480.7375    -12.26      -55.34      -34.75      -16.4       
480.79375   -12.36      -62.49      -35.63      -16.51      
480.85      -12.52      -60.59      -35.34      -16.45      
480.90625   -12.59      -67.43      -35.43      -16.53      
480.9625    -12.78      -57.82      -35.87      -16.52      
481.01875   -12.85      -54.22      -35.63      -16.61      
481.075     -13.18      -60.87      -34.89      -16.46      
481.13125   -13.24      -65.4       -35.73      -16.45      
481.1875    -13.44      -61.29      -35.86      -16.51      
481.24375   -13.53      -55.6       -35.52      -16.57      
481.3       -13.69      -53.99      -35.86      -16.46      
481.35625   -13.8       -59.78      -35.08      -16.51      
481.4125    -14.04      -60.53      -35.14      -16.5       
481.46875   -14.1       -58.19      -35.55      -16.62      
481.525     -14.34      -63.61      -35.82      -16.39      
481.58125   -14.23      -57.25      -34.98      -16.53      
481.6375    -14.5       -60.87      -35.48      -16.42      
481.69375   -14.51      -66.21      -34.94      -16.48      
481.75      -14.81      -63.74      -35.06      -16.56      
481.80625   -14.74      -67.03      -34.93      -16.56      
481.8625    -14.86      -56.45      -35.79      -16.46      
481.91875   -14.9       -56.02      -34.57      -16.51      
481.975     -15.14      -60.42      -35.3       -16.39      
482.03125   -15.21      -60.56      -34.87      -16.5       
482.0875    -15.22      -65.47      -35.2       -16.52      
482.14375   -15.31      -62.03      -35.03      -16.47      
482.2       -15.45      -51.96      -34.51      -16.37      
482.25625   -15.41      -63.38      -35.2       -16.55      
482.3125    -15.6       -51.42      -34.61      -16.4       
482.36875   -15.5       -61.86      -35.29      -16.52      
482.425     -15.71      -68.51      -34.81      -16.46      
482.48125   -15.67      -70.64      -34.95      -16.51      
482.5375    -15.76      -60.02      -34.96      -16.47      
482.59375   -15.67      -71.25      -35.16      -16.58      
482.65      -15.85      -75.65      -34.24      -16.52      
482.70625   -15.69      -66.14      -35.01      -16.51      
482.7625    -15.8       -64.19      -34.79      -16.55      
482.81875   -15.66      -59.79      -34.22      -16.46      
482.875     -15.58      -60.53      -34.41      -16.38      
482.93125   -15.47      -69.48      -34.46      -16.48      
482.9875    -15.54      -60.36      -34.15      -16.52      
483.04375   -15.37      -56.5       -34.61      -16.46      
483.1       -15.43      -70.95      -34.01      -16.43      
483.15625   -15.29      -60.52      -34.87      -16.51      
483.2125    -15.4       -58.8       -34.37      -16.47      
483.26875   -15.15      -58.57      -34.47      -16.5       
483.325     -15.15      -60.16      -34.21      -16.43      
483.38125   -15.11      -62.72      -34.57      -16.53      
483.4375    -15.07      -61.72      -33.96      -16.62      
483.49375   -14.97      -54.1       -34.51      -16.65      
483.55      -15.06      -61.94      -34.19      -16.46      
483.60625   -14.91      -62.19      -34.37      -16.47      
483.6625    -14.87      -59.16      -34.62      -16.34      
483.71875   -14.75      -64.84      -34.65      -16.5       
483.775     -14.78      -59.94      -33.89      -16.39      
483.83125   -14.56      -60.92      -34.28      -16.41      
483.8875    -14.62      -62.07      -33.85      -16.46      
483.94375   -14.53      -55.24      -35.0       -16.56      
484.0       -14.68      -55.17      -34.11      -16.46      
484.05625   -14.54      -67.7       -34.57      -16.48      
484.1125    -14.56      -62.92      -33.59      -16.38      
484.16875   -14.47      -82.9       -35.26      -16.53      
484.225     -14.52      -73.82      -34.15      -16.48      
484.28125   -14.41      -57.19      -34.2       -16.57      
484.3375    -14.46      -58.63      -34.24      -16.45      
484.39375   -14.23      -58.75      -33.65      -16.5       
484.45      -14.33      -55.42      -33.72      -16.43      
484.50625   -14.24      -60.72      -34.62      -16.54      
484.5625    -14.37      -58.52      -34.01      -16.43      
484.61875   -14.31      -53.63      -34.93      -16.59      
484.675     -14.54      -55.02      -33.8       -16.5       
484.73125   -14.54      -53.99      -34.79      -16.54      
484.7875    -14.69      -51.38      -34.32      -16.41      
484.84375   -14.68      -56.76      -35.1       -16.54      
484.9       -14.78      -61.13      -34.02      -16.49      
484.95625   -14.89      -55.19      -35.22      -16.51      
485.0125    -15.06      -57.29      -35.01      -16.44      
485.06875   -14.97      -56.88      -35.08      -16.44      
485.125     -15.22      -70.76      -34.28      -16.49      
485.18125   -15.2       -55.8       -35.75      -16.51      
485.2375    -15.46      -56.99      -34.72      -16.48      
485.29375   -15.43      -62.06      -35.95      -16.45      
485.35      -15.62      -60.89      -34.51      -16.53      
485.40625   -15.83      -59.47      -35.54      -16.46      
485.4625    -16.12      -55.35      -34.85      -16.51      
485.51875   -16.32      -57.42      -35.54      -16.47      
485.575     -16.71      -62.49      -35.09      -16.45      
485.63125   -16.7       -62.9       -36.04      -16.39      
485.6875    -17.2       -63.63      -35.62      -16.43      
485.74375   -17.38      -66.48      -36.62      -16.54      
485.8       -17.87      -61.19      -36.08      -16.51      
485.85625   -18.05      -61.7       -36.6       -16.47      
485.9125    -18.61      -56.47      -34.93      -16.44      
485.96875   -18.87      -69.2       -36.67      -16.52      
486.025     -19.56      -71.77      -36.75      -16.55      
486.08125   -19.88      -62.21      -36.78      -16.55      
486.1375    -20.66      -58.59      -35.46      -16.35      
486.19375   -21.23      -66.55      -36.99      -16.54      
486.25      -22.19      -56.67      -36.1       -16.53      
486.30625   -22.86      -60.56      -36.98      -16.64      
486.3625    -24.25      -61.16      -36.36      -16.57      
486.41875   -25.25      -63.06      -36.81      -16.63      
486.475     -26.36      -57.55      -36.89      -16.42      
486.53125   -27.65      -58.69      -37.59      -16.53      
486.5875    -29.13      -71.24      -37.0       -16.47      
486.64375   -30.38      -66.78      -36.32      -16.52      
486.7       -31.31      -51.57      -37.18      -16.48      
486.75625   -29.84      -67.07      -36.86      -16.43      
486.8125    -29.18      -65.82      -35.65      -16.48      
486.86875   -27.17      -60.01      -36.41      -16.66      
486.925     -25.43      -75.95      -36.11      -16.51      
486.98125   -23.6       -54.67      -36.7       -16.54      
487.0375    -22.25      -62.01      -36.47      -16.39      
487.09375   -20.84      -59.41      -36.98      -16.42      
487.15      -19.9       -59.88      -35.4       -16.48      
487.20625   -18.86      -65.22      -36.21      -16.58      
487.2625    -17.96      -54.02      -35.8       -16.51      
487.31875   -16.94      -59.84      -35.92      -16.46      
487.375     -16.3       -53.75      -35.22      -16.43      
487.43125   -15.56      -58.37      -34.84      -16.55      
487.4875    -14.73      -63.32      -34.67      -16.54      
487.54375   -14.11      -69.67      -34.78      -16.43      
487.6       -13.42      -57.85      -35.51      -16.54      
487.65625   -12.85      -60.4       -35.12      -16.49      
487.7125    -12.28      -55.22      -34.03      -16.57      
487.76875   -11.71      -61.38      -34.11      -16.48      
487.825     -11.38      -65.81      -33.14      -16.36      
487.88125   -10.88      -53.08      -33.66      -16.48      
487.9375    -10.57      -61.89      -33.06      -16.53      
487.99375   -10.19      -59.13      -33.63      -16.47      
488.05      -9.89       -58.77      -33.69      -16.47      
488.10625   -9.47       -59.69      -33.94      -16.63      
488.1625    -9.14       -57.8       -33.82      -16.44      
488.21875   -8.77       -63.26      -33.29      -16.49      
488.275     -8.5        -59.24      -33.49      -16.4       
488.33125   -8.16       -63.04      -32.88      -16.45      
488.3875    -7.86       -58.13      -33.02      -16.32      
488.44375   -7.53       -59.34      -32.97      -16.49      
488.5       -7.36       -54.64      -33.17      -16.4       
488.55625   -7.02       -52.59      -33.22      -16.53      
488.6125    -6.84       -60.04      -33.27      -16.37      
488.66875   -6.62       -63.84      -33.18      -16.67      
488.725     -6.47       -60.75      -32.85      -16.4       
488.78125   -6.24       -60.19      -32.97      -16.57      
488.8375    -6.13       -53.0       -33.7       -16.58      
488.89375   -5.93       -49.61      -33.53      -16.56      
488.95      -5.77       -74.47      -34.06      -16.4       
489.00625   -5.58       -59.02      -33.83      -16.49      
489.0625    -5.48       -65.02      -34.27      -16.53      
489.11875   -5.27       -59.59      -34.06      -16.53      
489.175     -5.19       -58.18      -34.14      -16.49      
489.23125   -5.01       -66.82      -33.12      -16.46      
489.2875    -4.89       -58.79      -34.69      -16.49      
489.34375   -4.76       -66.42      -33.8       -16.53      
489.4       -4.66       -59.45      -34.98      -16.49      
489.45625   -4.54       -58.66      -34.1       -16.49      
489.5125    -4.46       -63.63      -35.01      -16.42      
489.56875   -4.32       -62.74      -34.46      -16.57      
489.625     -4.25       -58.3       -35.33      -16.61      
489.68125   -4.16       -59.91      -34.54      -16.49      
489.7375    -4.1        -54.86      -35.67      -16.48      
489.79375   -4.02       -57.65      -35.54      -16.58      
489.85      -3.93       -62.14      -36.01      -16.48      
489.90625   -3.85       -55.37      -35.55      -16.37      
489.9625    -3.8        -56.56      -35.65      -16.4       
490.01875   -3.71       -59.67      -36.15      -16.62      
490.075     -3.71       -61.23      -35.9       -16.56      
490.13125   -3.61       -60.47      -36.41      -16.46      
490.1875    -3.58       -57.43      -37.24      -16.41      
490.24375   -3.48       -67.24      -36.61      -16.52      
490.3       -3.51       -59.24      -36.62      -16.44      
490.35625   -3.41       -62.64      -36.57      -16.53      
490.4125    -3.38       -58.23      -37.6       -16.51      
490.46875   -3.35       -59.02      -36.41      -16.51      
490.525     -3.31       -58.4       -37.61      -16.51      
490.58125   -3.27       -58.63      -37.03      -16.5       
490.6375    -3.24       -67.86      -37.59      -16.49      
490.69375   -3.17       -57.32      -37.32      -16.5       
490.75      -3.13       -63.55      -39.48      -16.35      
490.80625   -3.11       -55.02      -38.61      -16.54      
490.8625    -3.1        -64.11      -39.68      -16.49      
490.91875   -3.1        -67.04      -39.48      -16.51      
490.975     -3.08       -55.24      -38.92      -16.49      
491.03125   -2.99       -54.99      -39.19      -16.51      
491.0875    -2.93       -64.72      -39.48      -16.45      
491.14375   -2.93       -68.27      -39.85      -16.46      
491.2       -2.92       -59.75      -39.52      -16.44      
491.25625   -2.88       -60.14      -39.7       -16.56      
491.3125    -2.89       -62.01      -40.52      -16.5       
491.36875   -2.81       -54.23      -40.53      -16.49      
491.425     -2.87       -57.17      -41.18      -16.52      
491.48125   -2.77       -60.65      -40.56      -16.47      
491.5375    -2.78       -68.63      -41.96      -16.54      
491.59375   -2.76       -57.76      -40.69      -16.62      
491.65      -2.74       -58.49      -41.42      -16.56      
491.70625   -2.72       -61.33      -40.41      -16.55      
491.7625    -2.73       -73.41      -42.42      -16.4       
491.81875   -2.68       -58.41      -41.16      -16.52      
491.875     -2.68       -55.04      -41.99      -16.39      
491.93125   -2.66       -68.71      -42.9       -16.51      
491.9875    -2.67       -54.4       -43.76      -16.54      
492.04375   -2.64       -70.04      -42.64      -16.63      
492.1       -2.63       -67.41      -43.97      -16.5       
492.15625   -2.61       -61.46      -43.19      -16.49      
492.2125    -2.61       -63.52      -43.24      -16.52      
492.26875   -2.56       -73.51      -45.21      -16.51      
492.325     -2.59       -58.77      -44.13      -16.45      
492.38125   -2.56       -60.42      -43.79      -16.51      
492.4375    -2.55       -64.09      -44.19      -16.54      
492.49375   -2.56       -57.93      -44.02      -16.52      
492.55      -2.56       -60.26      -44.04      -16.54      
492.60625   -2.55       -57.38      -43.03      -16.57      
492.6625    -2.5        -58.96      -43.63      -16.48      
492.71875   -2.54       -69.21      -45.66      -16.58      
492.775     -2.52       -52.24      -46.42      -16.5       
492.83125   -2.5        -61.67      -45.24      -16.5       
492.8875    -2.5        -63.54      -45.51      -16.59      
492.94375   -2.5        -59.78      -49.22      -16.61      
493.0       -2.49       -55.41      -47.01      -16.46      
493.05625   -2.47       -65.02      -46.31      -16.61      
493.1125    -2.48       -63.78      -46.88      -16.4       
493.16875   -2.47       -66.1       -47.11      -16.54      
493.225     -2.44       -59.69      -45.59      -16.5       
493.28125   -2.45       -55.25      -46.35      -16.6       
493.3375    -2.46       -64.3       -48.39      -16.5       
493.39375   -2.43       -60.94      -47.64      -16.58      
493.45      -2.39       -88.06      -46.06      -16.49      
493.50625   -2.44       -70.72      -47.03      -16.49      
493.5625    -2.41       -59.6       -49.2       -16.52      
493.61875   -2.38       -67.84      -51.42      -16.63      
493.675     -2.38       -59.21      -48.58      -16.49      
493.73125   -2.39       -53.3       -49.11      -16.46      
493.7875    -2.37       -58.67      -46.44      -16.55      
493.84375   -2.38       -59.74      -51.75      -16.59      
493.9       -2.39       -57.77      -48.22      -16.57      
493.95625   -2.38       -60.19      -49.75      -16.56      
494.0125    -2.41       -54.77      -47.44      -16.64      
494.06875   -2.34       -55.3       -50.06      -16.46      
494.125     -2.38       -58.2       -47.74      -16.47      
494.18125   -2.37       -59.19      -59.03      -16.57      
494.2375    -2.35       -65.76      -49.86      -16.46      
494.29375   -2.32       -58.25      -51.7       -16.52      
494.35      -2.37       -55.92      -46.26      -16.39      
494.40625   -2.37       -58.96      -48.95      -16.61      
494.4625    -2.34       -58.79      -49.8       -16.47      
494.51875   -2.34       -58.47      -57.58      -16.55      
494.575     -2.31       -56.18      -51.17      -16.51      
494.63125   -2.32       -62.0       -52.71      -16.55      
494.6875    -2.32       -63.86      -52.09      -16.47      
494.74375   -2.32       -57.91      -52.65      -16.52      
494.8       -2.32       -52.28      -52.54      -16.53      
494.85625   -2.33       -60.92      -56.93      -16.48      
494.9125    -2.34       -66.88      -48.78      -16.52      
494.96875   -2.34       -55.92      -49.25      -16.67      
495.025     -2.33       -59.91      -51.09      -16.53      
495.08125   -2.31       -62.5       -52.46      -16.53      
495.1375    -2.32       -68.76      -53.92      -16.48      
495.19375   -2.3        -68.69      -54.11      -16.56      
495.25      -2.3        -62.56      -55.15      -16.52      
495.30625   -2.31       -65.77      -55.09      -16.48      
495.3625    -2.29       -56.99      -51.31      -16.44      
495.41875   -2.27       -60.56      -54.27      -16.53      
495.475     -2.31       -57.57      -55.22      -16.44      
495.53125   -2.32       -67.62      -52.86      -16.5       
495.5875    -2.29       -55.38      -50.91      -16.57      
495.64375   -2.27       -58.18      -51.2       -16.52      
495.7       -2.31       -56.78      -53.15      -16.66      
495.75625   -2.29       -60.41      -49.92      -16.43      
495.8125    -2.31       -59.66      -54.52      -16.49      
495.86875   -2.28       -58.12      -51.46      -16.66      
495.925     -2.31       -64.63      -54.1       -16.49      
495.98125   -2.35       -72.33      -65.08      -16.6       
496.0375    -2.31       -54.93      -57.66      -16.53      
496.09375   -2.26       -58.03      -51.07      -16.57      
496.15      -2.32       -60.63      -50.93      -16.55      
496.20625   -2.3        -69.6       -64.17      -16.51      
496.2625    -2.3        -76.69      -57.11      -16.52      
496.31875   -2.28       -57.05      -54.4       -16.5       
496.375     -2.3        -61.12      -55.08      -16.56      
496.43125   -2.25       -57.67      -53.78      -16.58      
496.4875    -2.3        -61.86      -53.32      -16.61      
496.54375   -2.23       -63.41      -54.86      -16.58      
496.6       -2.28       -58.66      -61.41      -16.61      
496.65625   -2.28       -54.43      -51.48      -16.6       
496.7125    -2.3        -58.81      -51.8       -16.55      
496.76875   -2.26       -55.66      -56.89      -16.54      
496.825     -2.32       -68.0       -65.52      -16.63      
496.88125   -2.32       -57.29      -55.61      -16.52      
496.9375    -2.3        -64.7       -55.54      -16.55      
496.99375   -2.29       -55.07      -54.62      -16.51      
497.05      -2.28       -58.99      -57.57      -16.56      
497.10625   -2.3        -56.4       -51.34      -16.47      
497.1625    -2.28       -58.12      -59.1       -16.67      
497.21875   -2.33       -63.05      -55.03      -16.48      
497.275     -2.3        -60.87      -56.37      -16.57      
497.33125   -2.29       -54.98      -56.85      -16.57      
497.3875    -2.27       -61.14      -55.36      -16.61      
497.44375   -2.28       -62.3       -63.72      -16.52      
497.5       -2.32       -54.73      -57.33      -16.56      
497.55625   -2.28       -60.26      -61.28      -16.55      
497.6125    -2.3        -64.04      -54.86      -16.53      
497.66875   -2.28       -58.6       -56.56      -16.5       
497.725     -2.31       -63.31      -60.06      -16.57      
497.78125   -2.28       -55.51      -53.76      -16.71      
497.8375    -2.28       -57.16      -62.33      -16.68      
497.89375   -2.28       -58.49      -54.74      -16.51      
497.95      -2.27       -55.97      -56.57      -16.66      
498.00625   -2.29       -52.88      -52.74      -16.53      
498.0625    -2.28       -60.28      -62.79      -16.65      
498.11875   -2.28       -55.25      -57.74      -16.65      
498.175     -2.27       -61.05      -54.1       -16.53      
498.23125   -2.26       -56.24      -57.76      -16.67      
498.2875    -2.31       -57.62      -55.81      -16.55      
498.34375   -2.32       -59.38      -58.52      -16.54      
498.4       -2.3        -60.46      -59.97      -16.61      
498.45625   -2.29       -64.98      -64.91      -16.54      
498.5125    -2.25       -68.48      -58.2       -16.51      
498.56875   -2.3        -67.87      -71.07      -16.69      
498.625     -2.29       -58.55      -52.61      -16.72      
498.68125   -2.26       -60.46      -58.53      -16.64      
498.7375    -2.28       -55.94      -56.13      -16.51      
498.79375   -2.28       -66.4       -51.31      -16.66      
498.85      -2.26       -64.99      -73.71      -16.55      
498.90625   -2.27       -59.59      -57.93      -16.59      
498.9625    -2.23       -53.46      -60.78      -16.59      
499.01875   -2.28       -55.53      -51.79      -16.69      
499.075     -2.28       -58.35      -65.16      -16.61      
499.13125   -2.24       -62.34      -64.65      -16.57      
499.1875    -2.3        -55.54      -61.32      -16.55      
499.24375   -2.22       -58.26      -57.09      -16.7       
499.3       -2.27       -66.62      -58.75      -16.58      
499.35625   -2.28       -57.42      -63.66      -16.65      
499.4125    -2.26       -61.1       -59.67      -16.55      
499.46875   -2.26       -60.84      -69.59      -16.51      
499.525     -2.26       -53.51      -57.47      -16.65      
499.58125   -2.23       -59.7       -56.92      -16.51      
499.6375    -2.27       -69.52      -66.29      -16.61      
499.69375   -2.27       -57.72      -57.35      -16.52      
499.75      -2.26       -65.86      -69.46      -16.52      
499.80625   -2.27       -57.66      -62.1       -16.52      
499.8625    -2.28       -55.58      -63.58      -16.49      
499.91875   -2.25       -58.3       -51.3       -16.54      
499.975     -2.29       -66.92      -70.28      -16.64      
500.03125   -2.28       -53.77      -53.34      -16.6       
500.0875    -2.25       -64.05      -51.98      -16.56      
500.14375   -2.27       -67.5       -62.05      -16.59      
500.2       -2.28       -59.67      -67.04      -16.67      
500.25625   -2.24       -55.14      -57.81      -16.68      
500.3125    -2.27       -56.34      -57.82      -16.58      
500.36875   -2.27       -61.03      -56.8       -16.54      
500.425     -2.29       -60.45      -63.35      -16.57      
500.48125   -2.25       -60.29      -54.06      -16.77      
500.5375    -2.25       -64.41      -55.42      -16.62      
500.59375   -2.24       -60.16      -55.71      -16.65      
500.65      -2.26       -57.78      -70.31      -16.64      
500.70625   -2.26       -63.25      -51.05      -16.61      
500.7625    -2.25       -56.24      -64.58      -16.76      
500.81875   -2.24       -68.2       -54.66      -16.59      
500.875     -2.31       -54.95      -57.33      -16.69      
500.93125   -2.26       -61.24      -55.77      -16.6       
500.9875    -2.29       -64.09      -66.4       -16.56      
501.04375   -2.24       -67.9       -57.86      -16.6       
501.1       -2.26       -55.69      -57.1       -16.59      
501.15625   -2.29       -70.22      -61.4       -16.6       
501.2125    -2.28       -66.75      -59.42      -16.58      
501.26875   -2.23       -56.49      -56.77      -16.68      
501.325     -2.27       -58.08      -59.95      -16.59      
501.38125   -2.27       -63.91      -55.51      -16.68      
501.4375    -2.3        -56.92      -76.76      -16.56      
501.49375   -2.24       -56.58      -70.08      -16.63      
501.55      -2.26       -56.85      -57.68      -16.6       
501.60625   -2.23       -56.76      -62.73      -16.63      
501.6625    -2.3        -56.19      -62.19      -16.62      
501.71875   -2.25       -59.3       -55.99      -16.67      
501.775     -2.33       -63.59      -66.1       -16.65      
501.83125   -2.27       -60.97      -53.95      -16.67      
501.8875    -2.29       -72.27      -68.0       -16.6       
501.94375   -2.24       -57.18      -59.59      -16.63      
502.0       -2.29       -72.55      -55.64      -16.73      
502.05625   -2.28       -57.38      -53.11      -16.68      
502.1125    -2.28       -58.05      -57.3       -16.7       
502.16875   -2.28       -57.35      -57.5       -16.51      
502.225     -2.31       -62.54      -65.08      -16.74      
502.28125   -2.29       -53.2       -56.34      -16.69      
502.3375    -2.29       -61.92      -59.38      -16.6       
502.39375   -2.25       -60.21      -59.62      -16.56      
502.45      -2.31       -51.65      -64.49      -16.77      
502.50625   -2.28       -56.02      -66.87      -16.63      
502.5625    -2.29       -64.49      -71.82      -16.56      
502.61875   -2.31       -54.32      -59.24      -16.5       
502.675     -2.31       -57.79      -63.52      -16.62      
502.73125   -2.27       -57.34      -55.22      -16.68      
502.7875    -2.29       -56.04      -79.62      -16.66      
502.84375   -2.3        -57.02      -58.24      -16.79      
502.9       -2.31       -56.41      -62.24      -16.79      
502.95625   -2.29       -59.5       -60.51      -16.63      
503.0125    -2.33       -55.76      -58.34      -16.72      
503.06875   -2.3        -59.4       -49.57      -16.58      
503.125     -2.28       -56.82      -76.73      -16.68      
503.18125   -2.25       -57.18      -52.08      -16.73      
503.2375    -2.3        -61.37      -61.62      -16.69      
503.29375   -2.29       -64.18      -61.51      -16.7       
503.35      -2.31       -70.75      -64.91      -16.74      
503.40625   -2.29       -59.06      -60.49      -16.67      
503.4625    -2.33       -63.42      -63.76      -16.64      
503.51875   -2.23       -56.71      -62.18      -16.7       
503.575     -2.35       -58.25      -71.45      -16.64      
503.63125   -2.29       -63.66      -53.84      -16.64      
503.6875    -2.34       -62.28      -56.04      -16.7       
503.74375   -2.29       -60.19      -56.07      -16.75      
503.8       -2.34       -61.55      -63.44      -16.66      
503.85625   -2.34       -64.4       -52.3       -16.71      
503.9125    -2.32       -67.99      -65.17      -16.66      
503.96875   -2.3        -63.46      -57.08      -16.57      
504.025     -2.36       -53.97      -60.66      -16.68      
504.08125   -2.33       -67.56      -54.8       -16.6       
504.1375    -2.32       -58.49      -64.49      -16.82      
504.19375   -2.28       -61.56      -56.63      -16.76      
504.25      -2.36       -65.61      -63.15      -16.67      
504.30625   -2.32       -63.64      -61.72      -16.79      
504.3625    -2.35       -60.55      -62.77      -16.67      
504.41875   -2.29       -64.19      -54.05      -16.68      
504.475     -2.38       -63.89      -58.5       -16.72      
504.53125   -2.31       -55.98      -62.39      -16.68      
504.5875    -2.38       -57.03      -60.29      -16.76      
504.64375   -2.36       -66.82      -55.99      -16.68      
504.7       -2.41       -68.58      -57.97      -16.74      
504.75625   -2.35       -57.22      -58.63      -16.78      
504.8125    -2.4        -63.85      -62.88      -16.61      
504.86875   -2.37       -66.35      -58.86      -16.71      
504.925     -2.4        -55.45      -56.09      -16.74      
504.98125   -2.34       -60.03      -56.17      -16.69      
505.0375    -2.35       -59.56      -58.66      -16.73      
505.09375   -2.38       -60.06      -58.38      -16.66      
505.15      -2.43       -57.28      -55.54      -16.64      
505.20625   -2.4        -62.44      -59.98      -16.76      
505.2625    -2.4        -67.1       -61.23      -16.74      
505.31875   -2.35       -58.34      -56.16      -16.78      
505.375     -2.41       -57.25      -70.66      -16.78      
505.43125   -2.37       -62.83      -63.55      -16.66      
505.4875    -2.43       -59.18      -60.32      -16.82      
505.54375   -2.38       -57.7       -58.29      -16.88      
505.6       -2.43       -54.08      -69.61      -16.79      
505.65625   -2.39       -55.3       -56.0       -16.79      
505.7125    -2.46       -66.39      -54.65      -16.68      
505.76875   -2.42       -52.55      -55.6       -16.77      
505.825     -2.42       -58.48      -58.08      -16.79      
505.88125   -2.42       -57.92      -59.83      -16.69      
505.9375    -2.46       -56.27      -57.61      -16.61      
505.99375   -2.45       -58.02      -53.72      -16.83      
506.05      -2.48       -89.25      -59.36      -16.69      
506.10625   -2.41       -65.99      -57.02      -16.75      
506.1625    -2.48       -63.46      -62.97      -16.73      
506.21875   -2.45       -56.12      -53.51      -16.77      
506.275     -2.48       -66.29      -61.44      -16.68      
506.33125   -2.4        -68.63      -68.23      -16.67      
506.3875    -2.51       -54.44      -59.43      -16.88      
506.44375   -2.44       -62.36      -53.44      -16.64      
506.5       -2.47       -56.45      -65.47      -16.87      
506.55625   -2.39       -58.97      -53.32      -16.81      
506.6125    -2.52       -55.54      -65.57      -16.66      
506.66875   -2.42       -55.29      -53.02      -16.89      
506.725     -2.51       -65.43      -59.18      -16.77      
506.78125   -2.46       -64.06      -55.83      -16.82      
506.8375    -2.5        -57.32      -54.51      -16.77      
506.89375   -2.44       -62.69      -57.76      -16.86      
506.95      -2.53       -69.62      -64.69      -16.74      
507.00625   -2.48       -63.79      -60.57      -16.8       
507.0625    -2.54       -55.82      -57.66      -16.8       
507.11875   -2.5        -54.64      -52.51      -16.79      
507.175     -2.55       -55.81      -57.97      -16.73      
507.23125   -2.53       -52.21      -54.4       -16.72      
507.2875    -2.56       -61.56      -57.07      -16.63      
507.34375   -2.5        -72.41      -73.4       -16.7       
507.4       -2.58       -56.65      -57.38      -16.82      
507.45625   -2.51       -71.67      -52.44      -16.72      
507.5125    -2.57       -59.38      -54.38      -16.85      
507.56875   -2.57       -55.82      -52.51      -16.79      
507.625     -2.58       -57.58      -61.27      -16.84      
507.68125   -2.56       -56.2       -55.85      -16.92      
507.7375    -2.63       -65.9       -58.1       -16.79      
507.79375   -2.54       -53.85      -53.26      -16.76      
507.85      -2.61       -59.51      -57.13      -16.91      
507.90625   -2.54       -55.84      -69.66      -16.92      
507.9625    -2.61       -53.31      -58.37      -16.77      
508.01875   -2.58       -59.84      -52.42      -16.71      
508.075     -2.64       -55.36      -70.16      -16.83      
508.13125   -2.59       -59.3       -61.7       -16.77      
508.1875    -2.61       -65.14      -68.14      -16.8       
508.24375   -2.59       -52.68      -51.71      -16.81      
508.3       -2.63       -56.79      -61.3       -16.88      
508.35625   -2.57       -62.43      -55.5       -16.8       
508.4125    -2.7        -65.62      -58.55      -16.83      
508.46875   -2.57       -56.85      -65.29      -16.9       
508.525     -2.67       -77.3       -60.11      -16.82      
508.58125   -2.62       -63.19      -54.75      -16.83      
508.6375    -2.68       -68.14      -60.34      -16.8       
508.69375   -2.63       -56.62      -60.81      -16.75      
508.75      -2.69       -58.52      -53.03      -16.76      
508.80625   -2.6        -57.88      -57.6       -16.73      
508.8625    -2.66       -65.57      -71.15      -16.96      
508.91875   -2.59       -56.06      -52.09      -16.88      
508.975     -2.67       -63.57      -53.59      -16.83      
509.03125   -2.57       -62.03      -57.58      -16.78      
509.0875    -2.68       -59.22      -54.95      -16.84      
509.14375   -2.62       -58.08      -73.72      -16.85      
509.2       -2.68       -60.78      -52.78      -16.9       
509.25625   -2.66       -61.49      -57.17      -16.89      
509.3125    -2.69       -53.03      -64.14      -16.88      
509.36875   -2.69       -71.2       -60.32      -16.76      
509.425     -2.7        -63.69      -53.84      -16.84      
509.48125   -2.72       -56.44      -70.69      -16.87      
509.5375    -2.73       -63.0       -61.96      -16.79      
509.59375   -2.66       -55.81      -52.35      -16.75      
509.65      -2.7        -55.96      -62.49      -16.97      
509.70625   -2.68       -62.5       -57.16      -16.85      
509.7625    -2.71       -61.41      -60.35      -16.84      
509.81875   -2.67       -57.64      -59.08      -16.96      
509.875     -2.69       -66.36      -51.97      -16.9       
509.93125   -2.67       -64.2       -55.9       -16.79      
509.9875    -2.72       -62.27      -54.09      -16.81      
510.04375   -2.69       -61.04      -63.24      -16.91      
510.1       -2.7        -57.27      -60.27      -16.85      
510.15625   -2.68       -59.96      -63.49      -16.88      
510.2125    -2.71       -54.37      -63.26      -16.69      
510.26875   -2.69       -59.41      -61.33      -16.84      
510.325     -2.73       -62.85      -58.43      -16.73      
510.38125   -2.68       -54.71      -53.31      -16.84      
510.4375    -2.75       -53.41      -70.74      -16.77      
510.49375   -2.68       -61.08      -67.69      -16.77      
510.55      -2.75       -61.49      -54.83      -16.84      
510.60625   -2.72       -65.56      -60.45      -16.93      
510.6625    -2.76       -56.22      -53.45      -16.82      
510.71875   -2.73       -55.28      -67.1       -16.82      
510.775     -2.77       -56.49      -57.91      -16.88      
510.83125   -2.73       -60.55      -66.22      -16.94      
510.8875    -2.78       -55.92      -58.15      -16.73      
510.94375   -2.72       -60.47      -71.52      -16.87      
511.0       -2.75       -55.82      -51.4       -16.72      
511.05625   -2.69       -56.81      -60.02      -16.79      
511.1125    -2.73       -55.91      -60.95      -16.85      
511.16875   -2.7        -61.21      -56.34      -16.84      
511.225     -2.71       -58.55      -59.03      -16.81      
511.28125   -2.71       -59.37      -65.84      -16.98      
511.3375    -2.77       -64.41      -63.97      -16.91      
511.39375   -2.7        -62.53      -55.75      -16.77      
511.45      -2.75       -58.26      -58.22      -16.83      
511.50625   -2.69       -58.88      -54.32      -16.9       
511.5625    -2.73       -55.5       -54.1       -16.94      
511.61875   -2.75       -63.05      -66.85      -16.84      
511.675     -2.77       -58.7       -55.7       -16.91      
511.73125   -2.7        -62.89      -61.66      -17.04      
511.7875    -2.74       -58.44      -55.84      -16.85      
511.84375   -2.69       -54.56      -65.66      -16.85      
511.9       -2.73       -58.14      -52.96      -16.85      
511.95625   -2.74       -63.74      -61.05      -16.89      
512.0125    -2.76       -59.43      -59.18      -16.94      
512.06875   -2.69       -52.06      -63.45      -16.85      
512.125     -2.74       -56.29      -66.51      -16.82      
512.18125   -2.74       -67.7       -60.51      -16.92      
512.2375    -2.77       -56.49      -54.91      -16.9       
512.29375   -2.77       -55.84      -59.54      -16.9       
512.35      -2.8        -52.46      -54.86      -16.79      
512.40625   -2.71       -59.17      -72.65      -16.88      
512.4625    -2.77       -61.29      -53.56      -16.99      
512.51875   -2.73       -59.72      -64.52      -16.9       
512.575     -2.75       -55.84      -59.95      -16.97      
512.63125   -2.67       -55.49      -57.86      -16.81      
512.6875    -2.71       -56.92      -71.39      -16.91      
512.74375   -2.69       -57.37      -56.93      -16.9       
512.8       -2.74       -68.8       -61.12      -16.96      
512.85625   -2.71       -60.65      -57.75      -16.8       
512.9125    -2.78       -56.87      -56.94      -16.86      
512.96875   -2.73       -54.55      -68.01      -16.94      
513.025     -2.76       -60.22      -52.7       -16.92      
513.08125   -2.75       -64.01      -58.87      -16.91      
513.1375    -2.75       -65.55      -51.01      -16.99      
513.19375   -2.73       -57.29      -61.66      -16.96      
513.25      -2.73       -60.92      -56.31      -16.89      
513.30625   -2.72       -53.17      -58.38      -16.77      
513.3625    -2.73       -68.36      -54.98      -16.87      
513.41875   -2.7        -57.85      -56.39      -16.94      
513.475     -2.76       -59.15      -63.02      -16.91      
513.53125   -2.75       -58.31      -63.16      -16.96      
513.5875    -2.72       -58.39      -65.15      -16.91      
513.64375   -2.68       -54.13      -66.53      -16.88      
513.7       -2.69       -56.29      -57.83      -16.95      
513.75625   -2.72       -57.89      -64.39      -17.08      
513.8125    -2.71       -63.01      -58.41      -17.02      
513.86875   -2.69       -59.59      -58.39      -16.96      
513.925     -2.73       -60.33      -55.22      -17.0       
513.98125   -2.71       -55.34      -68.96      -17.02      
514.0375    -2.76       -68.77      -55.07      -17.02      
514.09375   -2.69       -63.25      -59.3       -16.9       
514.15      -2.79       -63.32      -65.27      -16.9       
514.20625   -2.73       -53.83      -59.91      -16.84      
514.2625    -2.81       -68.02      -58.68      -16.93      
514.31875   -2.75       -55.61      -56.68      -16.97      
514.375     -2.77       -56.84      -54.8       -16.88      
514.43125   -2.73       -73.0       -60.06      -17.05      
514.4875    -2.76       -59.37      -62.17      -16.97      
514.54375   -2.69       -62.96      -75.43      -16.85      
514.6       -2.74       -62.46      -61.89      -16.81      
514.65625   -2.72       -56.16      -66.25      -16.99      
514.7125    -2.76       -57.51      -59.58      -16.89      
514.76875   -2.7        -55.85      -57.1       -16.97      
514.825     -2.74       -64.34      -62.95      -16.99      
514.88125   -2.73       -63.07      -59.58      -17.08      
514.9375    -2.73       -59.72      -66.45      -16.84      
514.99375   -2.76       -57.96      -55.16      -16.82      
515.05      -2.78       -61.2       -52.39      -16.94      
515.10625   -2.76       -56.26      -58.4       -17.02      
515.1625    -2.78       -56.45      -51.63      -16.96      
515.21875   -2.76       -62.75      -60.19      -16.91      
515.275     -2.75       -56.76      -55.19      -16.98      
515.33125   -2.7        -58.96      -68.88      -16.92      
515.3875    -2.73       -56.71      -69.09      -16.96      
515.44375   -2.75       -88.35      -67.65      -16.97      
515.5       -2.74       -56.81      -53.71      -17.06      
515.55625   -2.66       -68.17      -55.45      -16.95      
515.6125    -2.67       -54.42      -73.76      -17.03      
515.66875   -2.68       -63.62      -67.85      -16.91      
515.725     -2.68       -57.64      -65.24      -16.95      
515.78125   -2.65       -61.45      -63.29      -16.85      
515.8375    -2.73       -55.45      -70.33      -17.0       
515.89375   -2.7        -51.59      -57.49      -16.94      
515.95      -2.74       -63.42      -58.54      -16.96      
516.00625   -2.76       -55.52      -55.24      -16.88      
516.0625    -2.74       -57.75      -61.09      -16.93      
516.11875   -2.68       -56.81      -57.19      -16.87      
516.175     -2.75       -59.3       -61.86      -16.95      
516.23125   -2.72       -71.74      -68.47      -16.99      
516.2875    -2.73       -58.7       -58.78      -16.98      
516.34375   -2.7        -60.53      -59.0       -16.98      
516.4       -2.72       -55.08      -59.53      -17.08      
516.45625   -2.72       -58.19      -60.59      -17.01      
516.5125    -2.75       -62.85      -53.8       -16.98      
516.56875   -2.69       -59.95      -65.43      -16.97      
516.625     -2.72       -57.89      -67.58      -17.07      
516.68125   -2.74       -66.66      -57.64      -16.96      
516.7375    -2.74       -58.46      -66.21      -17.01      
516.79375   -2.76       -66.49      -61.92      -16.99      
516.85      -2.74       -62.44      -54.83      -17.04      
516.90625   -2.7        -62.27      -75.11      -16.98      
516.9625    -2.72       -55.32      -61.35      -16.99      
517.01875   -2.71       -57.84      -55.47      -17.07      
517.075     -2.73       -57.81      -72.91      -17.06      
517.13125   -2.72       -56.12      -59.99      -16.92      
517.1875    -2.7        -61.33      -58.68      -16.92      
517.24375   -2.71       -57.95      -58.03      -16.93      
517.3       -2.69       -59.01      -61.47      -17.03      
517.35625   -2.7        -57.63      -57.45      -17.0       
517.4125    -2.73       -55.6       -57.64      -17.07      
517.46875   -2.68       -57.64      -66.91      -17.14      
517.525     -2.72       -53.83      -59.86      -16.93      
517.58125   -2.66       -71.81      -57.24      -16.99      
517.6375    -2.68       -60.28      -58.11      -16.91      
517.69375   -2.72       -54.06      -55.78      -17.01      
517.75      -2.68       -54.98      -57.25      -16.96      
517.80625   -2.7        -53.6       -57.24      -16.95      
517.8625    -2.72       -67.82      -58.62      -16.95      
517.91875   -2.72       -54.46      -59.03      -17.05      
517.975     -2.74       -61.34      -61.31      -17.04      
518.03125   -2.73       -66.63      -57.83      -16.89      
518.0875    -2.76       -61.05      -57.01      -16.99      
518.14375   -2.7        -66.49      -59.37      -17.07      
518.2       -2.72       -57.82      -59.91      -17.0       
518.25625   -2.7        -59.73      -54.22      -16.95      
518.3125    -2.67       -69.34      -63.22      -17.02      
518.36875   -2.72       -58.04      -54.39      -17.08      
518.425     -2.7        -62.75      -66.54      -17.03      
518.48125   -2.7        -59.46      -62.16      -16.95      
518.5375    -2.74       -60.7       -70.83      -17.08      
518.59375   -2.66       -66.14      -61.84      -17.04      
518.65      -2.71       -54.93      -69.74      -17.03      
518.70625   -2.72       -61.95      -63.4       -17.11      
518.7625    -2.69       -61.98      -55.93      -17.03      
518.81875   -2.7        -51.88      -57.82      -17.07      
518.875     -2.72       -62.15      -55.81      -17.11      
518.93125   -2.7        -64.39      -56.54      -17.07      
518.9875    -2.71       -57.39      -54.51      -17.05      
519.04375   -2.71       -76.49      -58.29      -17.06      
519.1       -2.68       -61.6       -53.55      -17.09      
519.15625   -2.7        -53.98      -61.32      -16.99      
519.2125    -2.71       -57.76      -66.39      -16.99      
519.26875   -2.68       -58.74      -54.4       -16.97      
519.325     -2.72       -60.14      -57.47      -17.03      
519.38125   -2.68       -68.35      -53.14      -17.01      
519.4375    -2.72       -60.85      -69.77      -17.07      
519.49375   -2.73       -64.88      -64.66      -16.97      
519.55      -2.71       -58.62      -56.36      -17.05      
519.60625   -2.7        -54.34      -56.21      -17.1       
519.6625    -2.72       -62.14      -57.17      -17.13      
519.71875   -2.72       -67.98      -54.79      -16.97      
519.775     -2.71       -56.82      -57.11      -17.03      
519.83125   -2.69       -54.86      -60.78      -17.08      
519.8875    -2.71       -62.59      -54.37      -16.93      
519.94375   -2.67       -54.25      -60.72      -16.92      
520.0       -2.71       -60.46      -69.22      -16.97      
