TESTE DA PLACA: RFFE

Operador: Fernando
Numero de Serie: 11111111
RFFE Software Version: V2_0002
RFFE - IP: 10.0.18.9
RFFE - Communication: OK
Start Time: 23-02-2017 20:52:50
End Time: 23-02-2017 20:52:50
Duracao do Teste: 6.609 min

Set-up Info:
Network Analyzer Model: E5062A
Network Analyzer - IP: 10.0.18.20
Network Analyzer - Communication: OK
Waveform Generator Model: 33500B
Waveform Generator - IP: 10.0.18.13
Waveform Generator - Communication: OK
RF Switch Model: RC-2SP4T-A18
RF Switch1 - IP: 10.0.18.12
RF Switch1 - Communication: OK
RF Switch2 - IP: 10.0.18.15
RF Switch2 - Communication: OK
DC Power Supply Model: 6626A

RESULTS:

RFFE Ch: 3-3

Freq [MHz]  S11 [dB]    S12 [dB]    S21 [dB]    S22 [dB]    
430.0       -2.59       -54.72      -41.99      -16.2       
430.05625   -2.57       -58.31      -44.91      -16.34      
430.1125    -2.55       -61.63      -43.0       -16.15      
430.16875   -2.58       -56.3       -42.77      -16.31      
430.225     -2.58       -57.75      -43.86      -16.11      
430.28125   -2.61       -59.96      -44.79      -16.29      
430.3375    -2.58       -59.11      -41.22      -16.21      
430.39375   -2.61       -62.39      -45.9       -16.38      
430.45      -2.51       -62.62      -41.48      -16.1       
430.50625   -2.59       -60.88      -44.17      -16.17      
430.5625    -2.51       -56.21      -42.68      -16.08      
430.61875   -2.6        -59.55      -44.72      -16.32      
430.675     -2.55       -56.53      -44.02      -16.09      
430.73125   -2.59       -60.78      -44.5       -16.26      
430.7875    -2.53       -56.17      -42.51      -16.14      
430.84375   -2.53       -64.68      -46.13      -16.29      
430.9       -2.49       -58.36      -43.57      -16.19      
430.95625   -2.56       -54.23      -44.42      -16.24      
431.0125    -2.55       -71.32      -42.59      -16.18      
431.06875   -2.57       -72.44      -44.59      -16.29      
431.125     -2.5        -59.44      -43.79      -16.13      
431.18125   -2.54       -57.05      -45.82      -16.29      
431.2375    -2.53       -56.67      -44.02      -16.14      
431.29375   -2.53       -64.76      -45.25      -16.36      
431.35      -2.45       -57.5       -42.48      -16.12      
431.40625   -2.51       -57.14      -44.6       -16.29      
431.4625    -2.49       -64.56      -42.99      -16.15      
431.51875   -2.51       -53.51      -46.64      -16.25      
431.575     -2.48       -60.97      -46.79      -16.1       
431.63125   -2.53       -69.27      -44.73      -16.28      
431.6875    -2.5        -60.76      -42.89      -16.1       
431.74375   -2.51       -56.34      -46.24      -16.39      
431.8       -2.54       -60.51      -44.81      -16.19      
431.85625   -2.56       -66.53      -47.7       -16.26      
431.9125    -2.49       -74.1       -43.16      -16.19      
431.96875   -2.6        -55.79      -44.97      -16.24      
432.025     -2.58       -58.35      -42.93      -16.2       
432.08125   -2.59       -53.94      -43.08      -16.31      
432.1375    -2.56       -62.73      -41.66      -16.26      
432.19375   -2.59       -60.89      -44.21      -16.38      
432.25      -2.59       -59.49      -40.96      -16.02      
432.30625   -2.62       -66.56      -43.96      -16.15      
432.3625    -2.6        -65.98      -41.99      -16.27      
432.41875   -2.67       -58.86      -42.68      -16.3       
432.475     -2.64       -68.58      -42.68      -16.16      
432.53125   -2.67       -62.13      -46.51      -16.21      
432.5875    -2.64       -58.89      -42.22      -16.19      
432.64375   -2.67       -60.16      -44.67      -16.28      
432.7       -2.7        -61.74      -43.21      -16.14      
432.75625   -2.72       -53.45      -44.76      -16.25      
432.8125    -2.7        -60.58      -44.02      -16.08      
432.86875   -2.77       -54.57      -43.35      -16.24      
432.925     -2.72       -57.71      -44.15      -16.07      
432.98125   -2.81       -56.8       -46.36      -16.29      
433.0375    -2.75       -65.91      -41.43      -16.26      
433.09375   -2.74       -57.49      -45.51      -16.21      
433.15      -2.78       -57.47      -42.93      -16.17      
433.20625   -2.72       -56.77      -45.07      -16.18      
433.2625    -2.7        -59.17      -44.56      -16.23      
433.31875   -2.69       -59.76      -47.04      -16.22      
433.375     -2.68       -54.93      -44.3       -16.23      
433.43125   -2.73       -57.57      -48.62      -16.27      
433.4875    -2.69       -56.82      -44.94      -16.09      
433.54375   -2.67       -51.97      -46.18      -16.31      
433.6       -2.62       -57.18      -44.58      -16.27      
433.65625   -2.66       -52.31      -44.87      -16.17      
433.7125    -2.6        -54.19      -43.91      -16.1       
433.76875   -2.59       -56.73      -47.08      -16.14      
433.825     -2.64       -57.97      -47.38      -16.19      
433.88125   -2.63       -60.8       -46.96      -16.23      
433.9375    -2.61       -52.22      -47.18      -16.29      
433.99375   -2.6        -51.24      -48.86      -16.28      
434.05      -2.59       -59.4       -44.97      -16.18      
434.10625   -2.59       -57.22      -44.42      -16.22      
434.1625    -2.59       -60.38      -43.94      -16.28      
434.21875   -2.61       -63.53      -46.52      -16.22      
434.275     -2.55       -61.58      -46.46      -16.22      
434.33125   -2.63       -59.87      -48.75      -16.2       
434.3875    -2.61       -57.83      -44.03      -16.1       
434.44375   -2.59       -54.16      -45.09      -16.27      
434.5       -2.6        -51.57      -43.95      -16.12      
434.55625   -2.63       -63.65      -44.5       -16.2       
434.6125    -2.61       -66.79      -43.42      -16.21      
434.66875   -2.63       -60.47      -44.27      -16.16      
434.725     -2.63       -53.44      -43.7       -16.19      
434.78125   -2.64       -63.83      -43.47      -16.24      
434.8375    -2.64       -56.63      -43.28      -16.12      
434.89375   -2.67       -68.89      -44.45      -16.21      
434.95      -2.65       -61.66      -42.77      -16.21      
435.00625   -2.65       -62.69      -44.33      -16.29      
435.0625    -2.66       -56.93      -42.81      -16.18      
435.11875   -2.67       -62.64      -45.07      -16.2       
435.175     -2.66       -56.97      -44.66      -16.16      
435.23125   -2.69       -64.7       -44.39      -16.28      
435.2875    -2.7        -59.39      -43.47      -16.24      
435.34375   -2.72       -58.08      -45.27      -16.24      
435.4       -2.69       -56.37      -43.24      -16.12      
435.45625   -2.74       -53.43      -46.87      -16.27      
435.5125    -2.68       -57.84      -45.8       -16.19      
435.56875   -2.71       -56.38      -44.61      -16.24      
435.625     -2.68       -52.57      -45.91      -16.16      
435.68125   -2.71       -59.98      -46.67      -16.16      
435.7375    -2.71       -54.72      -44.75      -16.15      
435.79375   -2.73       -54.95      -45.45      -16.11      
435.85      -2.7        -63.01      -47.55      -16.19      
435.90625   -2.72       -60.25      -46.27      -16.14      
435.9625    -2.69       -57.67      -46.41      -16.13      
436.01875   -2.69       -58.03      -47.41      -16.2       
436.075     -2.67       -67.12      -49.84      -16.3       
436.13125   -2.68       -57.11      -52.3       -16.06      
436.1875    -2.65       -53.33      -48.5       -16.23      
436.24375   -2.62       -55.81      -48.95      -16.2       
436.3       -2.67       -59.39      -50.46      -16.28      
436.35625   -2.64       -58.59      -46.95      -16.22      
436.4125    -2.67       -68.23      -48.05      -16.22      
436.46875   -2.66       -70.15      -49.31      -16.21      
436.525     -2.66       -62.77      -49.88      -16.24      
436.58125   -2.67       -68.08      -51.65      -16.19      
436.6375    -2.69       -56.49      -49.86      -16.11      
436.69375   -2.65       -58.87      -48.91      -16.16      
436.75      -2.68       -58.54      -47.38      -16.12      
436.80625   -2.7        -58.36      -46.74      -16.19      
436.8625    -2.68       -55.97      -48.23      -16.18      
436.91875   -2.73       -68.63      -49.53      -16.21      
436.975     -2.69       -54.61      -51.25      -16.27      
437.03125   -2.74       -59.61      -47.97      -16.24      
437.0875    -2.74       -56.34      -48.51      -16.25      
437.14375   -2.74       -66.07      -48.8       -16.11      
437.2       -2.77       -54.08      -47.63      -16.28      
437.25625   -2.78       -52.04      -47.28      -16.22      
437.3125    -2.83       -66.96      -48.61      -16.22      
437.36875   -2.81       -63.55      -48.27      -16.12      
437.425     -2.86       -54.9       -47.08      -16.44      
437.48125   -2.87       -63.36      -49.74      -16.19      
437.5375    -2.88       -73.46      -49.26      -16.15      
437.59375   -2.88       -53.76      -51.99      -16.15      
437.65      -2.93       -58.77      -47.41      -16.23      
437.70625   -2.89       -59.19      -47.84      -16.18      
437.7625    -2.93       -58.22      -45.66      -16.24      
437.81875   -2.94       -55.26      -46.4       -16.11      
437.875     -2.96       -53.18      -45.58      -16.33      
437.93125   -2.91       -54.65      -46.62      -16.15      
437.9875    -2.85       -55.07      -45.25      -16.25      
438.04375   -2.9        -51.25      -47.67      -16.05      
438.1       -2.89       -69.46      -47.47      -16.18      
438.15625   -2.9        -57.2       -45.71      -16.15      
438.2125    -2.85       -56.37      -46.62      -16.3       
438.26875   -2.81       -61.92      -45.51      -16.25      
438.325     -2.83       -58.6       -45.51      -16.2       
438.38125   -2.75       -55.17      -46.04      -16.29      
438.4375    -2.74       -63.94      -43.22      -16.24      
438.49375   -2.67       -60.38      -43.19      -16.02      
438.55      -2.69       -57.39      -42.3       -16.36      
438.60625   -2.72       -72.67      -43.53      -16.19      
438.6625    -2.7        -56.16      -43.96      -16.23      
438.71875   -2.66       -66.2       -44.17      -16.09      
438.775     -2.62       -59.36      -44.36      -16.26      
438.83125   -2.66       -59.91      -44.8       -16.1       
438.8875    -2.6        -62.34      -44.75      -16.26      
438.94375   -2.65       -54.97      -41.76      -16.15      
439.0       -2.58       -61.2       -44.18      -16.18      
439.05625   -2.63       -80.62      -43.89      -16.16      
439.1125    -2.61       -62.48      -43.99      -16.3       
439.16875   -2.58       -60.01      -43.34      -16.19      
439.225     -2.59       -61.67      -44.08      -16.25      
439.28125   -2.58       -53.45      -43.88      -16.22      
439.3375    -2.62       -59.51      -43.28      -16.19      
439.39375   -2.61       -59.92      -43.42      -16.13      
439.45      -2.6        -50.89      -46.54      -16.31      
439.50625   -2.62       -56.0       -43.57      -16.19      
439.5625    -2.6        -57.34      -42.88      -16.25      
439.61875   -2.59       -56.96      -43.69      -16.24      
439.675     -2.62       -60.82      -43.3       -16.39      
439.73125   -2.64       -60.14      -46.24      -16.07      
439.7875    -2.65       -67.04      -46.81      -16.32      
439.84375   -2.67       -59.3       -45.05      -16.2       
439.9       -2.66       -64.01      -43.35      -16.31      
439.95625   -2.69       -52.91      -43.01      -16.07      
440.0125    -2.69       -61.92      -42.8       -16.28      
440.06875   -2.74       -82.56      -43.8       -16.06      
440.125     -2.72       -56.05      -44.06      -16.32      
440.18125   -2.78       -57.3       -44.34      -16.11      
440.2375    -2.84       -54.95      -44.09      -16.26      
440.29375   -2.84       -54.48      -47.76      -16.21      
440.35      -2.88       -50.66      -45.17      -16.29      
440.40625   -2.94       -63.28      -45.81      -16.09      
440.4625    -2.96       -53.18      -44.68      -16.32      
440.51875   -3.02       -58.85      -45.69      -16.07      
440.575     -3.03       -61.41      -43.63      -16.38      
440.63125   -3.03       -54.2       -44.63      -16.14      
440.6875    -3.06       -50.28      -44.92      -16.3       
440.74375   -3.07       -57.02      -42.41      -16.25      
440.8       -3.09       -54.59      -43.06      -16.4       
440.85625   -3.08       -70.67      -41.57      -16.26      
440.9125    -3.03       -57.8       -45.54      -16.24      
440.96875   -3.06       -61.5       -44.48      -16.17      
441.025     -3.01       -55.15      -43.17      -16.32      
441.08125   -2.94       -70.06      -41.58      -16.13      
441.1375    -2.96       -73.08      -42.34      -16.34      
441.19375   -2.85       -60.98      -41.5       -16.16      
441.25      -2.83       -77.05      -43.07      -16.25      
441.30625   -2.79       -76.5       -40.39      -16.11      
441.3625    -2.79       -55.99      -43.17      -16.24      
441.41875   -2.75       -64.26      -43.39      -16.18      
441.475     -2.74       -61.66      -42.42      -16.36      
441.53125   -2.65       -53.87      -40.91      -16.1       
441.5875    -2.68       -62.39      -42.77      -16.31      
441.64375   -2.63       -57.92      -40.84      -16.22      
441.7       -2.62       -58.86      -42.88      -16.32      
441.75625   -2.65       -63.58      -42.73      -16.02      
441.8125    -2.63       -56.8       -43.97      -16.34      
441.86875   -2.58       -62.38      -41.63      -16.15      
441.925     -2.62       -61.24      -43.02      -16.25      
441.98125   -2.64       -63.77      -41.99      -16.06      
442.0375    -2.6        -58.89      -42.66      -16.34      
442.09375   -2.58       -55.77      -40.93      -16.11      
442.15      -2.61       -56.7       -41.52      -16.28      
442.20625   -2.57       -55.9       -41.23      -16.12      
442.2625    -2.57       -65.61      -43.26      -16.19      
442.31875   -2.51       -56.42      -41.53      -16.14      
442.375     -2.6        -58.31      -43.53      -16.41      
442.43125   -2.6        -56.64      -41.3       -16.1       
442.4875    -2.62       -53.59      -42.88      -16.22      
442.54375   -2.6        -59.2       -41.05      -16.14      
442.6       -2.62       -57.19      -44.63      -16.36      
442.65625   -2.61       -61.9       -42.69      -16.13      
442.7125    -2.63       -54.3       -42.22      -16.25      
442.76875   -2.61       -57.59      -41.98      -16.12      
442.825     -2.62       -62.43      -45.5       -16.34      
442.88125   -2.61       -55.54      -41.94      -16.12      
442.9375    -2.65       -61.5       -43.41      -16.43      
442.99375   -2.61       -57.38      -41.7       -16.1       
443.05      -2.62       -59.65      -41.84      -16.26      
443.10625   -2.68       -56.13      -41.82      -16.14      
443.1625    -2.64       -61.82      -44.04      -16.33      
443.21875   -2.68       -62.38      -41.66      -16.21      
443.275     -2.67       -62.0       -42.7       -16.3       
443.33125   -2.65       -64.85      -43.11      -16.12      
443.3875    -2.7        -54.86      -42.89      -16.26      
443.44375   -2.65       -67.82      -41.87      -16.24      
443.5       -2.65       -59.56      -43.14      -16.25      
443.55625   -2.67       -60.08      -42.92      -16.22      
443.6125    -2.65       -54.06      -42.84      -16.31      
443.66875   -2.66       -57.49      -43.29      -16.06      
443.725     -2.64       -56.39      -46.2       -16.21      
443.78125   -2.66       -57.47      -43.67      -16.11      
443.8375    -2.64       -61.2       -45.78      -16.3       
443.89375   -2.62       -53.32      -43.13      -16.06      
443.95      -2.62       -58.22      -47.03      -16.28      
444.00625   -2.65       -58.62      -42.94      -16.25      
444.0625    -2.66       -63.56      -45.19      -16.31      
444.11875   -2.64       -58.14      -41.76      -16.21      
444.175     -2.62       -82.5       -44.64      -16.31      
444.23125   -2.58       -61.99      -43.56      -16.15      
444.2875    -2.62       -61.56      -45.08      -16.29      
444.34375   -2.58       -59.39      -42.95      -16.0       
444.4       -2.63       -55.59      -43.82      -16.3       
444.45625   -2.59       -54.37      -43.99      -16.31      
444.5125    -2.57       -59.58      -45.94      -16.29      
444.56875   -2.59       -64.99      -42.55      -16.14      
444.625     -2.58       -70.23      -43.96      -16.26      
444.68125   -2.57       -59.02      -41.32      -16.16      
444.7375    -2.59       -61.01      -44.09      -16.42      
444.79375   -2.57       -68.83      -41.68      -16.18      
444.85      -2.55       -62.73      -43.89      -16.37      
444.90625   -2.58       -55.76      -43.47      -16.18      
444.9625    -2.59       -60.02      -44.59      -16.4       
445.01875   -2.54       -57.52      -42.96      -16.12      
445.075     -2.6        -52.72      -45.45      -16.32      
445.13125   -2.58       -62.0       -42.24      -16.09      
445.1875    -2.59       -60.43      -43.29      -16.25      
445.24375   -2.58       -58.57      -43.15      -16.14      
445.3       -2.57       -55.05      -44.84      -16.26      
445.35625   -2.55       -56.46      -43.49      -16.15      
445.4125    -2.59       -56.75      -44.19      -16.28      
445.46875   -2.47       -62.61      -41.0       -16.23      
445.525     -2.54       -67.03      -46.46      -16.27      
445.58125   -2.49       -59.07      -41.36      -16.02      
445.6375    -2.48       -57.48      -43.7       -16.27      
445.69375   -2.5        -67.58      -42.76      -16.12      
445.75      -2.49       -62.94      -46.28      -16.27      
445.80625   -2.5        -64.4       -43.24      -16.07      
445.8625    -2.48       -55.55      -46.38      -16.27      
445.91875   -2.47       -65.77      -42.57      -16.19      
445.975     -2.41       -55.45      -42.92      -16.3       
446.03125   -2.48       -62.17      -43.12      -16.13      
446.0875    -2.46       -56.75      -45.52      -16.2       
446.14375   -2.42       -54.08      -42.46      -16.26      
446.2       -2.43       -58.57      -43.69      -16.2       
446.25625   -2.45       -56.59      -42.85      -16.19      
446.3125    -2.44       -66.97      -43.05      -16.29      
446.36875   -2.42       -54.93      -43.45      -16.15      
446.425     -2.42       -62.17      -43.91      -16.28      
446.48125   -2.42       -63.3       -42.9       -16.16      
446.5375    -2.43       -63.42      -43.03      -16.25      
446.59375   -2.45       -57.6       -43.39      -16.16      
446.65      -2.4        -53.12      -45.77      -16.17      
446.70625   -2.39       -63.98      -41.96      -16.15      
446.7625    -2.42       -65.14      -45.79      -16.31      
446.81875   -2.41       -59.19      -42.61      -16.2       
446.875     -2.38       -63.16      -43.96      -16.35      
446.93125   -2.43       -55.2       -43.33      -16.32      
446.9875    -2.42       -61.05      -44.73      -16.21      
447.04375   -2.42       -66.51      -42.19      -16.1       
447.1       -2.4        -60.71      -45.16      -16.26      
447.15625   -2.42       -60.75      -42.1       -16.14      
447.2125    -2.41       -65.96      -45.17      -16.21      
447.26875   -2.44       -58.62      -42.97      -16.15      
447.325     -2.42       -57.36      -43.08      -16.29      
447.38125   -2.4        -52.4       -40.95      -16.16      
447.4375    -2.43       -57.76      -42.85      -16.32      
447.49375   -2.47       -56.49      -40.93      -16.1       
447.55      -2.44       -56.73      -43.15      -16.26      
447.60625   -2.43       -66.58      -41.36      -16.23      
447.6625    -2.43       -56.9       -43.93      -16.23      
447.71875   -2.46       -55.25      -42.04      -16.11      
447.775     -2.43       -55.08      -43.05      -16.28      
447.83125   -2.45       -80.9       -41.76      -16.34      
447.8875    -2.42       -60.49      -42.66      -16.29      
447.94375   -2.44       -65.04      -42.19      -16.24      
448.0       -2.45       -56.06      -42.79      -16.24      
448.05625   -2.45       -53.63      -41.05      -16.11      
448.1125    -2.43       -60.27      -43.59      -16.21      
448.16875   -2.45       -56.1       -42.4       -16.16      
448.225     -2.4        -60.94      -42.44      -16.27      
448.28125   -2.45       -69.66      -41.41      -16.17      
448.3375    -2.37       -58.8       -43.48      -16.16      
448.39375   -2.42       -54.8       -41.61      -16.37      
448.45      -2.38       -55.12      -43.13      -16.25      
448.50625   -2.39       -63.02      -41.61      -16.22      
448.5625    -2.42       -55.75      -42.05      -16.17      
448.61875   -2.37       -54.69      -43.35      -16.22      
448.675     -2.39       -57.06      -42.69      -16.3       
448.73125   -2.41       -58.54      -42.22      -16.28      
448.7875    -2.38       -60.12      -44.09      -16.25      
448.84375   -2.38       -57.39      -43.93      -16.13      
448.9       -2.39       -54.89      -42.37      -16.29      
448.95625   -2.37       -56.84      -41.91      -16.23      
449.0125    -2.35       -54.74      -42.7       -16.2       
449.06875   -2.41       -53.5       -42.68      -16.18      
449.125     -2.37       -58.06      -42.56      -16.29      
449.18125   -2.33       -56.14      -42.16      -16.16      
449.2375    -2.38       -53.95      -42.68      -16.25      
449.29375   -2.41       -66.14      -42.62      -16.22      
449.35      -2.35       -72.44      -43.29      -16.29      
449.40625   -2.4        -56.55      -41.52      -16.26      
449.4625    -2.34       -61.58      -42.87      -16.22      
449.51875   -2.34       -59.67      -41.01      -16.13      
449.575     -2.35       -57.61      -44.84      -16.18      
449.63125   -2.37       -57.4       -41.83      -16.23      
449.6875    -2.36       -60.91      -41.68      -16.23      
449.74375   -2.4        -53.84      -41.84      -16.23      
449.8       -2.37       -61.52      -42.9       -16.18      
449.85625   -2.38       -57.94      -42.13      -16.14      
449.9125    -2.35       -56.43      -40.68      -16.36      
449.96875   -2.35       -59.61      -40.6       -16.28      
450.025     -2.35       -54.24      -41.3       -16.25      
450.08125   -2.39       -64.8       -41.56      -16.33      
450.1375    -2.33       -55.89      -41.57      -16.18      
450.19375   -2.41       -59.27      -40.42      -16.25      
450.25      -2.32       -175.68     -39.83      -16.21      
450.30625   -2.4        -61.35      -41.99      -16.26      
450.3625    -2.39       -60.03      -40.56      -16.23      
450.41875   -2.41       -59.44      -40.86      -16.32      
450.475     -2.35       -56.27      -41.07      -16.23      
450.53125   -2.37       -61.16      -40.77      -16.22      
450.5875    -2.34       -59.18      -41.43      -16.22      
450.64375   -2.36       -53.74      -40.89      -16.13      
450.7       -2.31       -56.05      -41.71      -16.19      
450.75625   -2.37       -53.53      -41.55      -16.36      
450.8125    -2.35       -54.85      -40.82      -16.13      
450.86875   -2.43       -58.37      -39.45      -16.28      
450.925     -2.37       -61.2       -40.55      -16.32      
450.98125   -2.38       -69.25      -40.85      -16.23      
451.0375    -2.32       -57.03      -41.57      -16.32      
451.09375   -2.37       -72.95      -40.62      -16.31      
451.15      -2.38       -59.1       -40.94      -16.23      
451.20625   -2.4        -61.76      -40.68      -16.26      
451.2625    -2.38       -58.51      -41.15      -16.22      
451.31875   -2.4        -60.16      -41.32      -16.26      
451.375     -2.37       -63.32      -41.44      -16.2       
451.43125   -2.36       -57.48      -40.85      -16.36      
451.4875    -2.35       -61.25      -39.57      -16.21      
451.54375   -2.39       -60.69      -40.97      -16.23      
451.6       -2.35       -67.57      -39.71      -16.27      
451.65625   -2.4        -63.14      -40.5       -16.3       
451.7125    -2.37       -58.23      -39.97      -16.15      
451.76875   -2.39       -58.11      -40.54      -16.28      
451.825     -2.37       -63.28      -39.86      -16.27      
451.88125   -2.42       -57.81      -40.57      -16.29      
451.9375    -2.35       -57.44      -39.65      -16.21      
451.99375   -2.37       -63.8       -40.52      -16.29      
452.05      -2.38       -56.67      -39.91      -16.22      
452.10625   -2.4        -56.27      -39.5       -16.28      
452.1625    -2.4        -55.7       -39.14      -16.33      
452.21875   -2.37       -56.6       -40.61      -16.33      
452.275     -2.4        -56.57      -39.77      -16.18      
452.33125   -2.4        -64.84      -40.55      -16.21      
452.3875    -2.35       -58.08      -39.31      -16.19      
452.44375   -2.4        -56.32      -40.74      -16.23      
452.5       -2.36       -59.08      -40.89      -16.25      
452.55625   -2.42       -58.76      -42.09      -16.42      
452.6125    -2.43       -69.53      -39.53      -16.18      
452.66875   -2.43       -62.14      -39.61      -16.24      
452.725     -2.42       -64.38      -39.8       -16.25      
452.78125   -2.44       -55.36      -40.32      -16.25      
452.8375    -2.38       -71.46      -40.11      -16.1       
452.89375   -2.39       -62.49      -40.21      -16.25      
452.95      -2.39       -55.93      -39.58      -16.18      
453.00625   -2.43       -57.6       -40.73      -16.29      
453.0625    -2.38       -66.77      -40.14      -16.12      
453.11875   -2.44       -68.32      -41.08      -16.29      
453.175     -2.41       -61.26      -39.41      -16.17      
453.23125   -2.44       -61.76      -40.69      -16.31      
453.2875    -2.43       -67.31      -38.92      -16.22      
453.34375   -2.48       -61.68      -39.63      -16.3       
453.4       -2.4        -70.14      -39.61      -16.21      
453.45625   -2.44       -57.99      -39.93      -16.28      
453.5125    -2.42       -57.86      -39.66      -16.15      
453.56875   -2.43       -56.47      -40.58      -16.24      
453.625     -2.39       -64.42      -40.13      -16.12      
453.68125   -2.46       -61.8       -40.56      -16.22      
453.7375    -2.44       -60.34      -39.58      -16.13      
453.79375   -2.44       -55.75      -40.34      -16.2       
453.85      -2.43       -62.61      -38.7       -16.25      
453.90625   -2.47       -66.96      -40.42      -16.33      
453.9625    -2.38       -58.84      -38.79      -16.16      
454.01875   -2.44       -58.62      -39.39      -16.36      
454.075     -2.43       -57.63      -39.15      -16.18      
454.13125   -2.48       -60.72      -39.08      -16.42      
454.1875    -2.45       -58.81      -38.33      -16.15      
454.24375   -2.44       -64.89      -38.91      -16.25      
454.3       -2.44       -56.34      -37.27      -16.19      
454.35625   -2.5        -59.95      -38.57      -16.17      
454.4125    -2.46       -56.46      -37.03      -16.17      
454.46875   -2.48       -62.15      -37.79      -16.27      
454.525     -2.5        -58.33      -37.47      -16.15      
454.58125   -2.5        -67.37      -37.68      -16.4       
454.6375    -2.49       -70.66      -36.68      -16.19      
454.69375   -2.57       -59.65      -37.4       -16.27      
454.75      -2.49       -60.36      -36.77      -16.16      
454.80625   -2.57       -58.48      -36.92      -16.25      
454.8625    -2.59       -55.81      -36.54      -16.2       
454.91875   -2.64       -60.46      -36.97      -16.25      
454.975     -2.61       -60.64      -36.12      -16.14      
455.03125   -2.7        -65.99      -36.09      -16.27      
455.0875    -2.65       -59.27      -37.07      -16.16      
455.14375   -2.76       -53.48      -36.85      -16.32      
455.2       -2.76       -59.57      -37.66      -16.19      
455.25625   -2.8        -58.19      -36.76      -16.28      
455.3125    -2.76       -58.75      -38.0       -16.06      
455.36875   -2.74       -53.35      -37.52      -16.26      
455.425     -2.66       -58.3       -38.1       -16.14      
455.48125   -2.73       -58.31      -38.32      -16.28      
455.5375    -2.68       -62.16      -38.51      -16.15      
455.59375   -2.66       -66.03      -38.29      -16.27      
455.65      -2.58       -58.23      -40.06      -16.05      
455.70625   -2.64       -53.41      -39.6       -16.21      
455.7625    -2.59       -59.61      -40.9       -16.05      
455.81875   -2.58       -58.16      -41.16      -16.24      
455.875     -2.53       -58.87      -41.56      -16.12      
455.93125   -2.55       -58.85      -39.89      -16.27      
455.9875    -2.5        -58.52      -41.09      -16.26      
456.04375   -2.54       -60.48      -41.08      -16.35      
456.1       -2.5        -55.05      -41.03      -16.13      
456.15625   -2.54       -60.76      -42.87      -16.24      
456.2125    -2.5        -64.16      -41.46      -16.1       
456.26875   -2.49       -65.32      -42.53      -16.16      
456.325     -2.45       -53.49      -42.01      -16.11      
456.38125   -2.51       -54.86      -43.83      -16.34      
456.4375    -2.52       -61.24      -40.99      -16.11      
456.49375   -2.52       -64.02      -42.8       -16.28      
456.55      -2.47       -60.01      -41.17      -16.21      
456.60625   -2.5        -54.69      -42.33      -16.21      
456.6625    -2.48       -60.48      -40.94      -16.08      
456.71875   -2.53       -56.0       -42.2       -16.32      
456.775     -2.53       -62.37      -40.74      -16.11      
456.83125   -2.54       -67.58      -40.37      -16.32      
456.8875    -2.49       -60.47      -39.62      -16.13      
456.94375   -2.55       -65.82      -39.9       -16.39      
457.0       -2.53       -59.39      -37.92      -16.25      
457.05625   -2.58       -62.54      -38.63      -16.29      
457.1125    -2.54       -64.99      -36.97      -16.21      
457.16875   -2.58       -56.51      -36.73      -16.31      
457.225     -2.57       -55.54      -34.29      -16.15      
457.28125   -2.61       -59.85      -33.93      -16.29      
457.3375    -2.61       -54.87      -32.35      -16.15      
457.39375   -2.64       -65.63      -31.37      -16.34      
457.45      -2.69       -77.01      -30.02      -16.13      
457.50625   -2.77       -55.97      -28.94      -16.28      
457.5625    -2.72       -58.7       -27.72      -16.19      
457.61875   -2.81       -58.91      -26.04      -16.2       
457.675     -2.82       -56.29      -24.34      -16.27      
457.73125   -2.92       -63.31      -22.77      -16.32      
457.7875    -2.96       -59.95      -21.33      -16.06      
457.84375   -3.07       -62.82      -19.99      -16.27      
457.9       -3.13       -62.97      -18.92      -16.15      
457.95625   -3.24       -53.75      -18.12      -16.24      
458.0125    -3.25       -59.4       -17.64      -15.98      
458.06875   -3.4        -57.67      -17.15      -16.35      
458.125     -3.41       -63.83      -16.99      -16.17      
458.18125   -3.53       -56.77      -16.82      -16.19      
458.2375    -3.49       -62.35      -16.96      -16.11      
458.29375   -3.54       -62.28      -17.57      -16.27      
458.35      -3.38       -52.96      -18.16      -16.04      
458.40625   -3.4        -59.07      -19.21      -16.16      
458.4625    -3.25       -53.78      -20.16      -16.19      
458.51875   -3.2        -62.39      -21.26      -16.13      
458.575     -3.01       -63.14      -22.26      -16.08      
458.63125   -3.01       -56.35      -23.89      -16.25      
458.6875    -2.89       -57.81      -24.47      -16.05      
458.74375   -2.91       -66.39      -25.56      -16.27      
458.8       -2.85       -70.83      -26.05      -16.03      
458.85625   -2.84       -55.19      -27.54      -16.31      
458.9125    -2.78       -57.41      -28.27      -16.1       
458.96875   -2.79       -60.81      -29.31      -16.24      
459.025     -2.7        -62.84      -29.94      -16.11      
459.08125   -2.75       -52.45      -31.73      -16.24      
459.1375    -2.68       -69.17      -32.4       -16.12      
459.19375   -2.76       -58.47      -33.74      -16.21      
459.25      -2.67       -56.57      -34.67      -16.16      
459.30625   -2.72       -63.55      -35.82      -16.37      
459.3625    -2.69       -58.65      -37.07      -16.11      
459.41875   -2.7        -57.84      -38.7       -16.36      
459.475     -2.71       -60.97      -38.21      -16.19      
459.53125   -2.76       -56.16      -40.2       -16.26      
459.5875    -2.7        -64.54      -40.66      -16.12      
459.64375   -2.79       -60.17      -42.3       -16.32      
459.7       -2.79       -58.27      -40.75      -16.15      
459.75625   -2.79       -60.3       -40.82      -16.28      
459.8125    -2.8        -51.56      -38.84      -16.1       
459.86875   -2.83       -60.55      -37.15      -16.23      
459.925     -2.83       -58.55      -35.44      -16.12      
459.98125   -2.91       -66.99      -33.17      -16.31      
460.0375    -2.9        -57.66      -32.36      -16.15      
460.09375   -3.0        -58.67      -29.56      -16.29      
460.15      -3.01       -55.52      -27.72      -16.17      
460.20625   -3.1        -66.27      -25.87      -16.23      
460.2625    -3.17       -71.79      -24.16      -16.13      
460.31875   -3.26       -64.2       -22.05      -16.28      
460.375     -3.39       -53.63      -20.08      -16.05      
460.43125   -3.56       -58.62      -18.16      -16.28      
460.4875    -3.65       -54.81      -16.31      -16.05      
460.54375   -3.87       -66.52      -14.46      -16.38      
460.6       -4.03       -76.29      -13.22      -16.18      
460.65625   -4.28       -58.31      -12.37      -16.29      
460.7125    -4.44       -62.73      -11.94      -15.9       
460.76875   -4.71       -60.41      -11.77      -16.27      
460.825     -4.85       -55.02      -11.89      -16.09      
460.88125   -4.87       -53.05      -12.54      -16.35      
460.9375    -4.82       -64.98      -13.56      -16.07      
460.99375   -4.54       -54.18      -15.07      -16.28      
461.05      -4.09       -62.22      -16.96      -16.16      
461.10625   -3.78       -54.25      -19.53      -16.29      
461.1625    -3.49       -60.79      -21.84      -16.19      
461.21875   -3.35       -61.59      -25.05      -16.31      
461.275     -3.23       -55.11      -27.95      -16.14      
461.33125   -3.15       -56.32      -31.19      -16.32      
461.3875    -3.1        -62.12      -34.25      -16.09      
461.44375   -3.06       -57.51      -38.8       -16.23      
461.5       -3.02       -57.96      -39.89      -16.17      
461.55625   -3.05       -59.34      -38.6       -16.34      
461.6125    -2.99       -53.01      -37.11      -16.23      
461.66875   -3.03       -59.24      -34.08      -16.29      
461.725     -3.02       -58.79      -31.65      -16.07      
461.78125   -3.06       -57.7       -28.49      -16.17      
461.8375    -3.13       -57.69      -26.19      -16.07      
461.89375   -3.18       -60.01      -23.67      -16.02      
461.95      -3.16       -57.32      -21.54      -16.17      
462.00625   -3.23       -52.01      -19.22      -16.28      
462.0625    -3.34       -59.8       -17.29      -16.07      
462.11875   -3.41       -51.81      -15.28      -16.25      
462.175     -3.58       -53.83      -13.4       -16.16      
462.23125   -3.71       -63.56      -11.47      -16.24      
462.2875    -3.99       -54.85      -9.73       -16.17      
462.34375   -4.27       -56.37      -7.99       -16.22      
462.4       -4.67       -71.87      -6.36       -16.2       
462.45625   -5.11       -61.91      -4.78       -16.32      
462.5125    -5.79       -62.16      -3.3        -16.08      
462.56875   -6.61       -56.15      -1.97       -16.23      
462.625     -7.68       -57.38      -0.71       -16.12      
462.68125   -8.92       -67.13      0.31        -16.26      
462.7375    -10.71      -54.04      1.27        -16.18      
462.79375   -12.75      -59.97      2.05        -16.23      
462.85      -15.48      -58.02      2.66        -16.12      
462.90625   -18.4       -65.37      3.1         -16.3       
462.9625    -21.25      -79.32      3.52        -16.13      
463.01875   -21.88      -57.92      3.76        -16.23      
463.075     -21.18      -60.09      4.04        -16.15      
463.13125   -19.22      -67.24      4.16        -16.23      
463.1875    -18.05      -60.01      4.34        -16.17      
463.24375   -17.01      -71.05      4.45        -16.27      
463.3       -16.56      -68.6       4.61        -16.04      
463.35625   -16.02      -72.97      4.71        -16.25      
463.4125    -15.9       -64.72      4.8         -16.08      
463.46875   -15.91      -61.81      4.83        -16.08      
463.525     -15.92      -66.88      4.93        -16.06      
463.58125   -16.19      -56.99      4.97        -16.09      
463.6375    -16.38      -56.68      5.13        -16.12      
463.69375   -16.67      -56.53      5.16        -16.23      
463.75      -17.14      -53.73      5.21        -16.06      
463.80625   -17.54      -65.08      5.26        -16.25      
463.8625    -17.82      -67.93      5.36        -16.11      
463.91875   -18.16      -61.74      5.38        -16.24      
463.975     -18.34      -60.29      5.5         -16.19      
464.03125   -18.45      -54.31      5.5         -16.21      
464.0875    -18.53      -65.02      5.6         -16.11      
464.14375   -18.38      -59.59      5.6         -16.19      
464.2       -18.17      -63.73      5.67        -16.15      
464.25625   -17.91      -51.47      5.67        -16.19      
464.3125    -17.53      -58.76      5.72        -16.08      
464.36875   -17.03      -55.98      5.7         -16.17      
464.425     -16.54      -58.4       5.7         -16.03      
464.48125   -16.13      -52.92      5.73        -16.16      
464.5375    -15.62      -64.03      5.78        -16.1       
464.59375   -15.19      -51.48      5.73        -16.22      
464.65      -14.75      -61.81      5.78        -16.18      
464.70625   -14.33      -69.97      5.73        -16.16      
464.7625    -13.96      -62.14      5.8         -16.08      
464.81875   -13.63      -52.82      5.77        -16.25      
464.875     -13.3       -53.02      5.77        -16.13      
464.93125   -12.99      -69.68      5.72        -16.21      
464.9875    -12.72      -58.54      5.78        -16.15      
465.04375   -12.46      -57.17      5.72        -16.24      
465.1       -12.31      -59.39      5.73        -16.16      
465.15625   -12.06      -58.78      5.74        -16.19      
465.2125    -11.92      -53.84      5.74        -16.15      
465.26875   -11.78      -60.59      5.73        -16.19      
465.325     -11.61      -63.32      5.73        -16.21      
465.38125   -11.59      -59.31      5.7         -16.14      
465.4375    -11.48      -55.32      5.74        -16.27      
465.49375   -11.35      -56.94      5.72        -16.09      
465.55      -11.27      -59.73      5.76        -16.04      
465.60625   -11.3       -57.89      5.69        -16.15      
465.6625    -11.24      -55.99      5.72        -16.25      
465.71875   -11.21      -55.33      5.72        -16.16      
465.775     -11.18      -59.95      5.75        -16.08      
465.83125   -11.15      -57.21      5.71        -16.07      
465.8875    -11.19      -53.34      5.74        -16.19      
465.94375   -11.18      -57.5       5.74        -16.25      
466.0       -11.24      -56.38      5.8         -16.15      
466.05625   -11.25      -52.9       5.75        -16.18      
466.1125    -11.27      -57.27      5.81        -16.19      
466.16875   -11.29      -60.46      5.79        -16.1       
466.225     -11.36      -57.73      5.81        -16.14      
466.28125   -11.43      -51.85      5.82        -16.13      
466.3375    -11.47      -53.21      5.86        -16.11      
466.39375   -11.48      -53.0       5.82        -16.16      
466.45      -11.61      -56.44      5.91        -16.21      
466.50625   -11.61      -68.09      5.86        -16.13      
466.5625    -11.77      -59.87      5.9         -16.18      
466.61875   -11.85      -61.05      5.91        -16.09      
466.675     -11.93      -58.01      5.91        -16.17      
466.73125   -12.0       -57.77      5.92        -16.18      
466.7875    -12.12      -57.92      6.0         -16.25      
466.84375   -12.2       -56.37      5.97        -16.13      
466.9       -12.34      -56.9       6.01        -16.14      
466.95625   -12.34      -66.76      5.99        -16.14      
467.0125    -12.54      -58.98      6.05        -16.21      
467.06875   -12.6       -53.92      6.03        -16.14      
467.125     -12.76      -58.88      6.05        -16.17      
467.18125   -12.89      -55.82      6.05        -16.08      
467.2375    -13.01      -56.96      6.1         -16.21      
467.29375   -13.1       -54.85      6.13        -16.25      
467.35      -13.25      -54.15      6.15        -16.36      
467.40625   -13.28      -58.06      6.09        -16.14      
467.4625    -13.47      -62.34      6.18        -16.18      
467.51875   -13.56      -55.46      6.12        -16.07      
467.575     -13.75      -63.95      6.18        -16.19      
467.63125   -13.75      -59.76      6.18        -16.32      
467.6875    -13.8       -58.13      6.18        -16.08      
467.74375   -14.0       -57.16      6.16        -16.13      
467.8       -14.12      -54.77      6.24        -16.21      
467.85625   -14.17      -74.67      6.18        -16.25      
467.9125    -14.29      -68.77      6.25        -16.2       
467.96875   -14.3       -78.04      6.21        -16.07      
468.025     -14.43      -66.88      6.23        -16.14      
468.08125   -14.41      -54.6       6.23        -16.16      
468.1375    -14.54      -62.08      6.25        -16.18      
468.19375   -14.5       -67.29      6.21        -16.07      
468.25      -14.64      -60.62      6.25        -16.14      
468.30625   -14.66      -60.91      6.2         -16.17      
468.3625    -14.76      -57.05      6.24        -16.07      
468.41875   -14.65      -64.69      6.24        -16.19      
468.475     -14.71      -57.35      6.23        -16.28      
468.53125   -14.6       -50.78      6.19        -16.14      
468.5875    -14.72      -58.02      6.26        -16.16      
468.64375   -14.6       -64.53      6.19        -16.19      
468.7       -14.62      -60.16      6.21        -16.19      
468.75625   -14.59      -52.73      6.18        -16.13      
468.8125    -14.55      -54.38      6.24        -16.13      
468.86875   -14.56      -55.23      6.22        -16.12      
468.925     -14.66      -65.33      6.23        -16.27      
468.98125   -14.54      -54.08      6.21        -16.13      
469.0375    -14.58      -59.7       6.24        -16.34      
469.09375   -14.47      -72.32      6.17        -16.04      
469.15      -14.54      -62.9       6.23        -16.1       
469.20625   -14.53      -55.97      6.19        -16.08      
469.2625    -14.46      -57.75      6.2         -16.14      
469.31875   -14.47      -60.45      6.17        -16.1       
469.375     -14.49      -61.11      6.19        -16.19      
469.43125   -14.39      -63.81      6.18        -16.04      
469.4875    -14.39      -64.22      6.21        -16.2       
469.54375   -14.4       -53.64      6.18        -16.15      
469.6       -14.39      -58.15      6.21        -16.16      
469.65625   -14.4       -58.82      6.16        -16.12      
469.7125    -14.34      -57.92      6.19        -16.29      
469.76875   -14.28      -61.22      6.14        -16.07      
469.825     -14.37      -56.12      6.19        -16.16      
469.88125   -14.35      -73.65      6.16        -16.03      
469.9375    -14.37      -67.29      6.19        -16.13      
469.99375   -14.38      -57.25      6.15        -16.02      
470.05      -14.46      -55.11      6.14        -16.22      
470.10625   -14.4       -58.82      6.12        -16.03      
470.1625    -14.54      -56.55      6.15        -16.11      
470.21875   -14.46      -53.52      6.13        -16.03      
470.275     -14.6       -61.09      6.18        -16.3       
470.33125   -14.44      -58.02      6.13        -16.17      
470.3875    -14.61      -60.49      6.14        -16.16      
470.44375   -14.54      -65.94      6.13        -16.12      
470.5       -14.64      -63.66      6.14        -16.2       
470.55625   -14.61      -58.63      6.1         -16.08      
470.6125    -14.75      -63.0       6.12        -16.15      
470.66875   -14.76      -59.39      6.1         -16.12      
470.725     -14.71      -54.05      6.15        -16.15      
470.78125   -14.77      -56.45      6.11        -16.14      
470.8375    -14.89      -53.01      6.16        -16.19      
470.89375   -14.79      -60.2       6.09        -15.96      
470.95      -14.93      -58.57      6.12        -16.22      
471.00625   -14.9       -62.0       6.08        -16.05      
471.0625    -15.15      -59.91      6.12        -16.16      
471.11875   -15.11      -55.6       6.1         -16.1       
471.175     -15.14      -61.07      6.14        -16.22      
471.23125   -15.29      -56.6       6.1         -16.07      
471.2875    -15.39      -57.98      6.17        -16.29      
471.34375   -15.39      -65.34      6.14        -16.1       
471.4       -15.69      -62.42      6.18        -16.21      
471.45625   -15.59      -57.49      6.17        -16.1       
471.5125    -15.79      -55.8       6.2         -16.28      
471.56875   -15.66      -59.59      6.19        -16.11      
471.625     -15.86      -63.68      6.22        -16.22      
471.68125   -15.79      -58.36      6.16        -16.01      
471.7375    -15.97      -60.06      6.2         -16.1       
471.79375   -15.91      -61.87      6.17        -16.01      
471.85      -16.02      -59.87      6.23        -16.26      
471.90625   -16.07      -59.68      6.19        -16.13      
471.9625    -16.27      -67.5       6.2         -16.34      
472.01875   -16.17      -55.93      6.19        -16.04      
472.075     -16.41      -56.2       6.23        -16.19      
472.13125   -16.17      -61.15      6.19        -16.12      
472.1875    -16.37      -50.68      6.21        -16.26      
472.24375   -16.23      -58.13      6.18        -16.05      
472.3       -16.35      -56.25      6.24        -16.2       
472.35625   -16.29      -55.77      6.21        -16.13      
472.4125    -16.43      -55.53      6.26        -16.22      
472.46875   -16.38      -55.97      6.19        -16.15      
472.525     -16.43      -66.36      6.25        -16.2       
472.58125   -16.41      -57.35      6.21        -15.98      
472.6375    -16.4       -61.9       6.28        -16.15      
472.69375   -16.25      -55.34      6.2         -16.06      
472.75      -16.41      -64.51      6.22        -16.27      
472.80625   -16.21      -56.78      6.21        -16.06      
472.8625    -16.28      -66.14      6.28        -16.23      
472.91875   -16.09      -59.93      6.19        -16.06      
472.975     -16.06      -58.87      6.28        -16.18      
473.03125   -15.88      -52.94      6.22        -16.05      
473.0875    -15.75      -55.7       6.27        -16.22      
473.14375   -15.78      -54.92      6.21        -16.07      
473.2       -15.69      -56.01      6.25        -16.18      
473.25625   -15.56      -69.42      6.21        -16.09      
473.3125    -15.48      -56.16      6.29        -16.26      
473.36875   -15.38      -66.1       6.2         -16.03      
473.425     -15.3       -59.17      6.25        -16.29      
473.48125   -15.09      -55.37      6.26        -16.1       
473.5375    -15.16      -57.57      6.27        -16.23      
473.59375   -14.89      -59.61      6.21        -16.06      
473.65      -14.93      -66.23      6.25        -16.22      
473.70625   -14.69      -55.95      6.22        -16.02      
473.7625    -14.68      -66.2       6.24        -16.17      
473.81875   -14.47      -56.96      6.21        -16.13      
473.875     -14.36      -58.51      6.25        -16.33      
473.93125   -14.21      -59.66      6.17        -16.07      
473.9875    -14.1       -62.56      6.21        -16.19      
474.04375   -13.8       -54.7       6.17        -15.96      
474.1       -13.76      -61.57      6.21        -16.3       
474.15625   -13.61      -58.4       6.18        -16.16      
474.2125    -13.61      -60.87      6.17        -16.23      
474.26875   -13.32      -57.1       6.14        -16.11      
474.325     -13.28      -55.66      6.22        -16.28      
474.38125   -12.99      -52.02      6.14        -16.04      
474.4375    -12.88      -60.03      6.17        -16.32      
474.49375   -12.8       -67.3       6.09        -16.0       
474.55      -12.71      -57.04      6.16        -16.1       
474.60625   -12.54      -61.24      6.09        -16.06      
474.6625    -12.48      -60.07      6.15        -16.27      
474.71875   -12.39      -56.39      6.09        -16.04      
474.775     -12.31      -56.11      6.12        -16.31      
474.83125   -12.09      -56.87      6.1         -16.02      
474.8875    -12.0       -59.01      6.1         -16.23      
474.94375   -11.91      -65.38      6.04        -16.16      
475.0       -11.83      -58.63      6.06        -16.22      
475.05625   -11.62      -65.04      6.04        -16.03      
475.1125    -11.62      -54.99      6.02        -16.25      
475.16875   -11.42      -56.34      5.99        -16.02      
475.225     -11.32      -58.9       5.97        -16.22      
475.28125   -11.19      -57.63      5.95        -16.05      
475.3375    -11.19      -53.5       5.99        -16.27      
475.39375   -10.93      -59.04      5.97        -16.1       
475.45      -10.94      -66.47      5.94        -16.13      
475.50625   -10.78      -50.76      5.95        -15.98      
475.5625    -10.72      -52.28      5.94        -16.16      
475.61875   -10.58      -70.89      5.88        -16.01      
475.675     -10.53      -61.99      5.93        -16.12      
475.73125   -10.46      -53.79      5.85        -15.97      
475.7875    -10.39      -61.69      5.9         -16.16      
475.84375   -10.31      -67.94      5.84        -16.06      
475.9       -10.26      -57.72      5.85        -16.26      
475.95625   -10.1       -53.67      5.8         -16.06      
476.0125    -10.09      -63.8       5.86        -16.3       
476.06875   -10.02      -58.21      5.79        -16.1       
476.125     -10.01      -54.62      5.78        -16.19      
476.18125   -9.88       -70.05      5.78        -16.12      
476.2375    -9.84       -64.66      5.77        -16.24      
476.29375   -9.75       -56.13      5.72        -16.1       
476.35      -9.78       -54.87      5.75        -16.2       
476.40625   -9.62       -57.88      5.72        -16.01      
476.4625    -9.66       -55.49      5.71        -16.16      
476.51875   -9.63       -56.89      5.69        -16.16      
476.575     -9.52       -66.08      5.7         -16.25      
476.63125   -9.51       -58.47      5.66        -16.01      
476.6875    -9.44       -54.94      5.68        -16.02      
476.74375   -9.39       -62.68      5.58        -16.15      
476.8       -9.43       -56.22      5.63        -16.11      
476.85625   -9.28       -62.69      5.61        -16.11      
476.9125    -9.36       -69.51      5.61        -16.18      
476.96875   -9.22       -54.32      5.61        -16.0       
477.025     -9.27       -55.96      5.62        -16.15      
477.08125   -9.16       -58.87      5.61        -15.99      
477.1375    -9.16       -55.79      5.59        -16.17      
477.19375   -9.07       -64.23      5.58        -16.12      
477.25      -9.11       -64.53      5.6         -16.19      
477.30625   -9.08       -59.79      5.55        -15.96      
477.3625    -9.13       -62.26      5.61        -16.21      
477.41875   -9.02       -54.58      5.53        -15.94      
477.475     -9.09       -57.04      5.57        -16.22      
477.53125   -8.99       -59.37      5.54        -16.07      
477.5875    -9.08       -58.4       5.58        -16.15      
477.64375   -9.03       -60.07      5.51        -16.09      
477.7       -9.14       -66.31      5.55        -16.12      
477.75625   -9.04       -64.54      5.45        -16.02      
477.8125    -9.05       -55.56      5.52        -16.14      
477.86875   -9.02       -56.72      5.46        -16.16      
477.925     -9.05       -54.96      5.54        -16.21      
477.98125   -9.05       -59.7       5.49        -16.08      
478.0375    -9.07       -56.16      5.52        -16.15      
478.09375   -9.02       -65.21      5.47        -16.1       
478.15      -9.1        -55.75      5.49        -16.19      
478.20625   -9.04       -55.15      5.46        -16.07      
478.2625    -9.07       -62.27      5.55        -16.12      
478.31875   -9.02       -60.16      5.44        -16.06      
478.375     -9.11       -60.79      5.51        -16.17      
478.43125   -9.04       -64.35      5.49        -16.14      
478.4875    -9.13       -60.06      5.52        -16.14      
478.54375   -9.1        -75.01      5.48        -16.01      
478.6       -9.15       -75.19      5.53        -16.16      
478.65625   -9.14       -54.85      5.46        -16.12      
478.7125    -9.16       -53.59      5.52        -16.21      
478.76875   -9.19       -57.06      5.52        -16.2       
478.825     -9.26       -58.1       5.53        -16.15      
478.88125   -9.25       -63.12      5.51        -16.15      
478.9375    -9.28       -63.33      5.58        -16.17      
478.99375   -9.35       -53.54      5.51        -16.0       
479.05      -9.35       -55.4       5.55        -16.14      
479.10625   -9.45       -67.87      5.51        -16.11      
479.1625    -9.45       -60.24      5.55        -16.22      
479.21875   -9.5        -63.08      5.48        -16.19      
479.275     -9.58       -59.36      5.56        -16.02      
479.33125   -9.53       -64.36      5.54        -16.12      
479.3875    -9.69       -56.65      5.54        -16.19      
479.44375   -9.71       -62.77      5.51        -16.05      
479.5       -9.78       -57.91      5.59        -16.24      
479.55625   -9.86       -53.93      5.54        -16.13      
479.6125    -9.93       -64.25      5.59        -16.14      
479.66875   -9.96       -61.24      5.59        -16.0       
479.725     -10.06      -55.68      5.61        -16.19      
479.78125   -10.04      -61.3       5.58        -16.0       
479.8375    -10.17      -56.85      5.67        -16.19      
479.89375   -10.21      -55.38      5.59        -16.11      
479.95      -10.27      -57.4       5.69        -16.19      
480.00625   -10.31      -67.55      5.61        -16.08      
480.0625    -10.37      -57.06      5.68        -16.16      
480.11875   -10.5       -58.04      5.62        -16.14      
480.175     -10.52      -59.99      5.68        -16.18      
480.23125   -10.62      -59.88      5.69        -16.21      
480.2875    -10.75      -55.8       5.7         -16.11      
480.34375   -10.76      -58.61      5.69        -16.03      
480.4       -10.88      -62.78      5.75        -16.22      
480.45625   -10.97      -54.21      5.72        -16.11      
480.5125    -11.07      -55.64      5.74        -16.18      
480.56875   -11.1       -56.87      5.71        -16.04      
480.625     -11.23      -61.09      5.77        -16.15      
480.68125   -11.32      -54.72      5.73        -16.13      
480.7375    -11.42      -57.74      5.78        -16.15      
480.79375   -11.52      -58.08      5.76        -16.09      
480.85      -11.58      -55.51      5.82        -16.18      
480.90625   -11.72      -62.15      5.77        -16.02      
480.9625    -11.91      -65.62      5.85        -16.12      
481.01875   -11.98      -56.07      5.8         -16.15      
481.075     -12.21      -63.75      5.89        -16.15      
481.13125   -12.23      -59.26      5.84        -16.16      
481.1875    -12.34      -55.75      5.92        -16.03      
481.24375   -12.43      -63.84      5.87        -16.2       
481.3       -12.55      -61.16      5.92        -16.06      
481.35625   -12.63      -63.35      5.88        -16.17      
481.4125    -12.76      -62.34      5.96        -16.12      
481.46875   -12.87      -53.21      5.91        -16.21      
481.525     -13.02      -60.45      5.95        -15.99      
481.58125   -12.99      -60.6       5.92        -16.13      
481.6375    -13.19      -58.42      5.99        -16.08      
481.69375   -13.31      -63.76      5.91        -16.11      
481.75      -13.46      -63.56      5.98        -16.23      
481.80625   -13.55      -59.18      5.94        -16.19      
481.8625    -13.73      -61.01      6.01        -16.09      
481.91875   -13.78      -61.79      5.95        -16.13      
481.975     -13.93      -59.63      5.98        -16.0       
482.03125   -14.06      -66.64      5.91        -16.21      
482.0875    -14.09      -58.18      5.97        -16.16      
482.14375   -14.22      -54.03      5.93        -16.08      
482.2       -14.32      -62.77      5.99        -16.08      
482.25625   -14.26      -58.06      5.91        -16.26      
482.3125    -14.4       -62.39      5.99        -16.07      
482.36875   -14.46      -57.41      5.9         -16.11      
482.425     -14.46      -85.68      5.99        -16.14      
482.48125   -14.55      -55.81      5.93        -16.23      
482.5375    -14.54      -56.07      5.96        -16.09      
482.59375   -14.44      -68.65      5.92        -16.16      
482.65      -14.44      -75.19      5.95        -16.15      
482.70625   -14.43      -57.61      5.91        -16.12      
482.7625    -14.48      -68.59      5.95        -16.13      
482.81875   -14.42      -65.97      5.9         -16.12      
482.875     -14.44      -57.86      5.94        -16.16      
482.93125   -14.3       -53.87      5.86        -16.16      
482.9875    -14.35      -54.43      5.93        -16.23      
483.04375   -14.26      -62.06      5.85        -16.18      
483.1       -14.27      -58.88      5.9         -16.11      
483.15625   -14.2       -73.63      5.82        -16.1       
483.2125    -14.2       -64.96      5.88        -16.05      
483.26875   -14.16      -62.45      5.79        -16.2       
483.325     -14.13      -52.97      5.83        -16.11      
483.38125   -14.12      -55.82      5.75        -16.19      
483.4375    -14.08      -67.83      5.81        -16.21      
483.49375   -14.05      -54.78      5.78        -16.25      
483.55      -14.07      -54.74      5.78        -16.1       
483.60625   -13.92      -55.03      5.69        -16.21      
483.6625    -13.9       -59.03      5.78        -16.08      
483.71875   -13.84      -58.99      5.66        -16.27      
483.775     -13.94      -60.0       5.73        -16.07      
483.83125   -13.84      -74.21      5.67        -16.16      
483.8875    -13.83      -59.38      5.71        -16.12      
483.94375   -13.79      -65.56      5.68        -16.33      
484.0       -13.75      -60.03      5.68        -16.16      
484.05625   -13.69      -52.3       5.63        -16.17      
484.1125    -13.57      -60.7       5.68        -16.2       
484.16875   -13.53      -51.97      5.61        -16.2       
484.225     -13.53      -63.26      5.64        -16.13      
484.28125   -13.6       -69.03      5.59        -16.31      
484.3375    -13.62      -57.69      5.61        -16.13      
484.39375   -13.59      -62.09      5.55        -16.3       
484.45      -13.65      -60.31      5.59        -16.07      
484.50625   -13.66      -59.24      5.52        -16.17      
484.5625    -13.7       -55.51      5.57        -16.18      
484.61875   -13.67      -59.36      5.48        -16.31      
484.675     -13.73      -62.84      5.57        -16.21      
484.73125   -13.83      -75.89      5.52        -16.21      
484.7875    -13.85      -68.72      5.52        -16.14      
484.84375   -13.86      -60.73      5.47        -16.21      
484.9       -13.85      -55.81      5.5         -16.14      
484.95625   -13.93      -56.79      5.41        -16.25      
485.0125    -14.03      -57.37      5.44        -16.04      
485.06875   -14.04      -59.05      5.39        -16.11      
485.125     -14.07      -54.99      5.44        -16.13      
485.18125   -14.27      -63.37      5.37        -16.27      
485.2375    -14.3       -56.95      5.43        -16.15      
485.29375   -14.45      -60.67      5.38        -16.19      
485.35      -14.55      -58.09      5.41        -16.24      
485.40625   -14.72      -65.94      5.33        -16.2       
485.4625    -14.87      -53.42      5.37        -16.11      
485.51875   -15.07      -68.65      5.31        -16.22      
485.575     -15.2       -57.84      5.36        -16.1       
485.63125   -15.49      -58.79      5.27        -16.08      
485.6875    -15.69      -62.1       5.32        -16.08      
485.74375   -16.08      -55.44      5.26        -16.25      
485.8       -16.28      -59.83      5.3         -16.16      
485.85625   -16.72      -79.84      5.24        -16.21      
485.9125    -17.03      -64.51      5.28        -16.1       
485.96875   -17.58      -65.31      5.19        -16.27      
486.025     -17.91      -57.15      5.21        -16.16      
486.08125   -18.55      -57.12      5.19        -16.25      
486.1375    -19.03      -56.73      5.23        -16.04      
486.19375   -19.79      -71.14      5.11        -16.19      
486.25      -20.53      -52.6       5.13        -16.26      
486.30625   -21.52      -52.6       5.06        -16.29      
486.3625    -22.34      -53.83      5.07        -16.25      
486.41875   -23.83      -58.91      5.0         -16.33      
486.475     -24.88      -57.83      5.02        -16.09      
486.53125   -26.5       -62.78      4.91        -16.19      
486.5875    -27.96      -56.59      4.91        -16.27      
486.64375   -30.81      -57.26      4.84        -16.22      
486.7       -32.45      -82.54      4.82        -16.07      
486.75625   -33.63      -76.42      4.76        -16.34      
486.8125    -33.27      -80.96      4.78        -16.15      
486.86875   -30.99      -60.1       4.69        -16.39      
486.925     -29.74      -54.8       4.67        -16.05      
486.98125   -27.35      -60.15      4.62        -16.38      
487.0375    -26.22      -66.79      4.61        -16.05      
487.09375   -24.44      -57.59      4.5         -16.24      
487.15      -23.41      -56.21      4.51        -16.15      
487.20625   -21.89      -59.16      4.45        -16.34      
487.2625    -20.93      -60.8       4.43        -16.2       
487.31875   -19.31      -62.33      4.37        -16.21      
487.375     -18.67      -53.08      4.35        -16.12      
487.43125   -17.39      -54.65      4.25        -16.23      
487.4875    -16.67      -55.97      4.22        -16.07      
487.54375   -15.71      -55.25      4.1         -16.2       
487.6       -15.1       -60.45      4.07        -16.18      
487.65625   -14.29      -59.29      3.95        -16.28      
487.7125    -13.8       -57.43      3.92        -16.12      
487.76875   -13.18      -66.25      3.76        -16.31      
487.825     -12.72      -52.57      3.69        -16.13      
487.88125   -12.12      -55.78      3.56        -16.3       
487.9375    -11.65      -69.18      3.49        -16.18      
487.99375   -11.05      -72.84      3.37        -16.17      
488.05      -10.68      -58.96      3.24        -16.17      
488.10625   -10.16      -62.24      3.09        -16.3       
488.1625    -9.75       -55.9       2.99        -16.09      
488.21875   -9.33       -61.45      2.82        -16.29      
488.275     -8.99       -85.55      2.77        -16.06      
488.33125   -8.62       -62.92      2.54        -16.35      
488.3875    -8.31       -62.03      2.45        -16.09      
488.44375   -7.96       -59.55      2.25        -16.39      
488.5       -7.79       -59.29      2.11        -16.24      
488.55625   -7.44       -72.13      1.9         -16.4       
488.6125    -7.21       -57.19      1.76        -16.2       
488.66875   -7.03       -72.08      1.59        -16.48      
488.725     -6.83       -70.26      1.45        -16.15      
488.78125   -6.55       -56.17      1.22        -16.32      
488.8375    -6.41       -56.15      1.08        -16.2       
488.89375   -6.18       -54.45      0.92        -16.41      
488.95      -5.97       -57.4       0.75        -16.11      
489.00625   -5.76       -56.3       0.49        -16.33      
489.0625    -5.62       -64.86      0.37        -16.2       
489.11875   -5.4        -56.87      0.13        -16.36      
489.175     -5.29       -56.82      -0.02       -16.13      
489.23125   -5.1        -58.65      -0.27       -16.33      
489.2875    -5.0        -60.72      -0.46       -16.16      
489.34375   -4.89       -65.13      -0.66       -16.37      
489.4       -4.78       -64.17      -0.86       -16.13      
489.45625   -4.64       -61.87      -1.09       -16.32      
489.5125    -4.54       -54.72      -1.24       -16.15      
489.56875   -4.45       -55.08      -1.46       -16.38      
489.625     -4.33       -56.39      -1.68       -16.31      
489.68125   -4.24       -60.12      -1.88       -16.36      
489.7375    -4.17       -58.08      -2.05       -16.21      
489.79375   -4.09       -56.65      -2.28       -16.46      
489.85      -4.0        -65.75      -2.44       -16.16      
489.90625   -3.9        -60.01      -2.7        -16.29      
489.9625    -3.82       -56.07      -2.87       -16.08      
490.01875   -3.76       -67.36      -3.12       -16.44      
490.075     -3.68       -61.22      -3.31       -16.29      
490.13125   -3.67       -61.15      -3.52       -16.38      
490.1875    -3.55       -51.75      -3.7        -16.25      
490.24375   -3.51       -55.46      -3.98       -16.23      
490.3       -3.45       -56.19      -4.15       -16.18      
490.35625   -3.37       -54.86      -4.45       -16.31      
490.4125    -3.31       -67.69      -4.6        -16.18      
490.46875   -3.28       -56.9       -4.89       -16.4       
490.525     -3.22       -54.5       -5.05       -16.3       
490.58125   -3.2        -81.26      -5.32       -16.42      
490.6375    -3.13       -62.22      -5.47       -16.23      
490.69375   -3.14       -54.81      -5.78       -16.38      
490.75      -3.1        -59.13      -5.95       -16.13      
490.80625   -3.09       -54.87      -6.21       -16.33      
490.8625    -3.02       -54.07      -6.38       -16.16      
490.91875   -3.04       -58.0       -6.67       -16.36      
490.975     -2.97       -65.11      -6.85       -16.22      
491.03125   -2.93       -55.05      -7.06       -16.37      
491.0875    -2.84       -57.35      -7.23       -16.19      
491.14375   -2.88       -57.21      -7.5        -16.31      
491.2       -2.81       -68.21      -7.62       -16.16      
491.25625   -2.85       -52.94      -7.87       -16.32      
491.3125    -2.78       -66.53      -8.01       -16.16      
491.36875   -2.77       -69.02      -8.24       -16.44      
491.425     -2.78       -65.87      -8.39       -16.24      
491.48125   -2.73       -53.61      -8.64       -16.41      
491.5375    -2.71       -53.45      -8.76       -16.23      
491.59375   -2.7        -66.75      -9.04       -16.39      
491.65      -2.66       -59.25      -9.15       -16.24      
491.70625   -2.67       -67.65      -9.42       -16.37      
491.7625    -2.63       -59.78      -9.46       -16.21      
491.81875   -2.61       -60.87      -9.75       -16.46      
491.875     -2.58       -59.68      -9.9        -16.18      
491.93125   -2.62       -56.02      -10.14      -16.35      
491.9875    -2.57       -53.25      -10.28      -16.26      
492.04375   -2.54       -53.59      -10.54      -16.37      
492.1       -2.53       -55.84      -10.74      -16.28      
492.15625   -2.53       -59.94      -10.96      -16.46      
492.2125    -2.49       -58.13      -11.1       -16.3       
492.26875   -2.52       -59.47      -11.35      -16.45      
492.325     -2.47       -66.29      -11.51      -16.24      
492.38125   -2.47       -68.8       -11.74      -16.31      
492.4375    -2.44       -63.06      -11.87      -16.3       
492.49375   -2.49       -58.44      -12.16      -16.38      
492.55      -2.44       -66.51      -12.24      -16.29      
492.60625   -2.45       -66.08      -12.56      -16.48      
492.6625    -2.4        -65.24      -12.66      -16.24      
492.71875   -2.44       -56.1       -12.92      -16.39      
492.775     -2.39       -60.62      -12.98      -16.18      
492.83125   -2.41       -60.67      -13.24      -16.45      
492.8875    -2.38       -63.9       -13.38      -16.28      
492.94375   -2.41       -65.43      -13.66      -16.4       
493.0       -2.34       -56.72      -13.75      -16.26      
493.05625   -2.37       -53.42      -14.06      -16.43      
493.1125    -2.34       -67.02      -14.1       -16.22      
493.16875   -2.36       -57.71      -14.47      -16.43      
493.225     -2.31       -59.89      -14.51      -16.42      
493.28125   -2.34       -57.26      -14.89      -16.34      
493.3375    -2.31       -61.65      -14.94      -16.25      
493.39375   -2.33       -69.77      -15.25      -16.43      
493.45      -2.28       -72.1       -15.23      -16.31      
493.50625   -2.36       -53.02      -15.67      -16.37      
493.5625    -2.28       -64.95      -15.67      -16.35      
493.61875   -2.32       -65.18      -16.0       -16.37      
493.675     -2.25       -53.44      -16.04      -16.26      
493.73125   -2.3        -58.7       -16.3       -16.5       
493.7875    -2.26       -64.76      -16.38      -16.33      
493.84375   -2.31       -54.4       -16.7       -16.38      
493.9       -2.25       -64.11      -16.67      -16.39      
493.95625   -2.3        -55.87      -16.98      -16.44      
494.0125    -2.25       -69.55      -17.18      -16.37      
494.06875   -2.27       -58.24      -17.39      -16.34      
494.125     -2.25       -72.97      -17.44      -16.24      
494.18125   -2.27       -56.65      -17.72      -16.45      
494.2375    -2.23       -60.97      -17.8       -16.33      
494.29375   -2.24       -60.49      -18.11      -16.46      
494.35      -2.25       -58.83      -18.12      -16.27      
494.40625   -2.31       -55.93      -18.57      -16.41      
494.4625    -2.23       -62.26      -18.5       -16.31      
494.51875   -2.25       -56.69      -18.89      -16.45      
494.575     -2.18       -57.92      -18.95      -16.36      
494.63125   -2.24       -63.87      -19.22      -16.4       
494.6875    -2.22       -75.94      -19.22      -16.29      
494.74375   -2.23       -61.21      -19.57      -16.38      
494.8       -2.18       -58.65      -19.63      -16.3       
494.85625   -2.24       -66.89      -19.98      -16.26      
494.9125    -2.18       -60.2       -19.92      -16.41      
494.96875   -2.25       -71.09      -20.33      -16.54      
495.025     -2.22       -52.27      -20.47      -16.43      
495.08125   -2.23       -58.68      -20.57      -16.37      
495.1375    -2.2        -62.79      -20.94      -16.52      
495.19375   -2.21       -64.88      -21.1       -16.3       
495.25      -2.2        -57.74      -21.12      -16.58      
495.30625   -2.2        -67.92      -21.45      -16.32      
495.3625    -2.22       -63.95      -21.53      -16.45      
495.41875   -2.18       -61.09      -21.79      -16.43      
495.475     -2.23       -60.02      -22.06      -16.46      
495.53125   -2.21       -57.59      -22.05      -16.45      
495.5875    -2.18       -58.45      -22.2       -16.48      
495.64375   -2.16       -61.04      -22.51      -16.39      
495.7       -2.2        -51.63      -22.7       -16.59      
495.75625   -2.19       -55.75      -22.96      -16.35      
495.8125    -2.19       -61.03      -22.96      -16.45      
495.86875   -2.13       -54.15      -23.08      -16.44      
495.925     -2.17       -58.74      -23.32      -16.43      
495.98125   -2.21       -59.56      -23.41      -16.39      
496.0375    -2.18       -57.96      -23.55      -16.58      
496.09375   -2.18       -57.34      -23.73      -16.36      
496.15      -2.19       -60.5       -23.92      -16.53      
496.20625   -2.24       -54.28      -24.0       -16.44      
496.2625    -2.17       -64.19      -24.4       -16.54      
496.31875   -2.19       -59.35      -24.39      -16.3       
496.375     -2.18       -53.73      -24.33      -16.57      
496.43125   -2.12       -54.96      -24.47      -16.39      
496.4875    -2.19       -57.65      -24.86      -16.51      
496.54375   -2.13       -60.99      -24.6       -16.4       
496.6       -2.14       -70.18      -24.98      -16.55      
496.65625   -2.17       -60.11      -24.96      -16.51      
496.7125    -2.18       -62.02      -25.19      -16.56      
496.76875   -2.16       -61.92      -25.23      -16.4       
496.825     -2.19       -61.05      -25.56      -16.54      
496.88125   -2.18       -60.77      -25.3       -16.37      
496.9375    -2.22       -55.76      -25.73      -16.5       
496.99375   -2.15       -56.62      -25.71      -16.36      
497.05      -2.15       -65.65      -25.85      -16.57      
497.10625   -2.21       -59.28      -26.34      -16.27      
497.1625    -2.17       -61.15      -26.53      -16.63      
497.21875   -2.21       -55.44      -26.5       -16.42      
497.275     -2.19       -59.27      -26.28      -16.63      
497.33125   -2.17       -71.31      -26.75      -16.44      
497.3875    -2.16       -59.08      -26.65      -16.69      
497.44375   -2.18       -59.22      -26.77      -16.47      
497.5       -2.19       -55.88      -26.74      -16.65      
497.55625   -2.17       -58.9       -26.75      -16.48      
497.6125    -2.19       -56.76      -27.2       -16.58      
497.66875   -2.18       -59.13      -26.97      -16.45      
497.725     -2.17       -57.22      -27.37      -16.65      
497.78125   -2.16       -60.77      -27.29      -16.54      
497.8375    -2.15       -56.91      -27.33      -16.65      
497.89375   -2.16       -58.29      -27.19      -16.37      
497.95      -2.16       -59.5       -27.17      -16.55      
498.00625   -2.18       -62.59      -27.37      -16.43      
498.0625    -2.14       -56.5       -27.53      -16.6       
498.11875   -2.17       -64.89      -27.24      -16.48      
498.175     -2.12       -62.22      -27.68      -16.53      
498.23125   -2.17       -61.32      -27.61      -16.46      
498.2875    -2.18       -53.45      -28.16      -16.61      
498.34375   -2.17       -56.61      -27.97      -16.53      
498.4       -2.16       -61.39      -28.33      -16.66      
498.45625   -2.14       -59.52      -27.79      -16.55      
498.5125    -2.14       -61.95      -27.96      -16.61      
498.56875   -2.19       -75.03      -27.85      -16.59      
498.625     -2.2        -61.39      -27.8       -16.65      
498.68125   -2.17       -62.28      -27.91      -16.51      
498.7375    -2.16       -53.81      -28.42      -16.54      
498.79375   -2.18       -64.49      -28.57      -16.51      
498.85      -2.13       -61.16      -28.67      -16.65      
498.90625   -2.14       -65.84      -28.11      -16.4       
498.9625    -2.14       -85.99      -28.68      -16.65      
499.01875   -2.16       -53.7       -28.33      -16.46      
499.075     -2.16       -63.25      -28.67      -16.7       
499.13125   -2.14       -56.82      -28.11      -16.48      
499.1875    -2.18       -79.73      -28.47      -16.58      
499.24375   -2.12       -59.41      -28.42      -16.56      
499.3       -2.18       -65.82      -28.55      -16.64      
499.35625   -2.16       -56.61      -28.6       -16.51      
499.4125    -2.1        -65.21      -29.4       -16.64      
499.46875   -2.15       -51.51      -29.41      -16.43      
499.525     -2.13       -55.64      -29.79      -16.72      
499.58125   -2.11       -59.62      -29.41      -16.5       
499.6375    -2.16       -65.33      -30.1       -16.68      
499.69375   -2.17       -58.25      -29.94      -16.49      
499.75      -2.13       -57.37      -29.92      -16.58      
499.80625   -2.13       -52.33      -29.88      -16.54      
499.8625    -2.16       -59.65      -29.92      -16.66      
499.91875   -2.12       -61.86      -29.34      -16.5       
499.975     -2.16       -65.74      -29.56      -16.6       
500.03125   -2.16       -51.39      -29.8       -16.49      
500.0875    -2.13       -66.95      -29.83      -16.63      
500.14375   -2.13       -68.01      -29.57      -16.58      
500.2       -2.1        -54.11      -30.5       -16.76      
500.25625   -2.14       -66.43      -29.94      -16.56      
500.3125    -2.15       -63.42      -30.64      -16.68      
500.36875   -2.12       -59.04      -29.89      -16.54      
500.425     -2.13       -59.23      -30.27      -16.71      
500.48125   -2.11       -63.9       -29.97      -16.55      
500.5375    -2.11       -66.11      -30.52      -16.61      
500.59375   -2.11       -56.68      -30.36      -16.55      
500.65      -2.13       -53.75      -31.16      -16.75      
500.70625   -2.14       -52.65      -30.7       -16.71      
500.7625    -2.13       -60.91      -31.42      -16.81      
500.81875   -2.11       -54.81      -30.62      -16.59      
500.875     -2.17       -60.49      -31.05      -16.81      
500.93125   -2.13       -54.3       -30.99      -16.55      
500.9875    -2.17       -56.31      -31.63      -16.68      
501.04375   -2.12       -59.5       -30.75      -16.69      
501.1       -2.15       -54.72      -32.0       -16.72      
501.15625   -2.16       -65.26      -31.56      -16.65      
501.2125    -2.13       -63.74      -31.55      -16.64      
501.26875   -2.13       -60.74      -31.36      -16.62      
501.325     -2.11       -64.58      -31.67      -16.6       
501.38125   -2.13       -60.73      -30.92      -16.71      
501.4375    -2.15       -53.25      -31.69      -16.71      
501.49375   -2.13       -64.08      -31.5       -16.66      
501.55      -2.1        -66.26      -32.58      -16.77      
501.60625   -2.12       -60.89      -31.78      -16.58      
501.6625    -2.19       -53.5       -32.37      -16.65      
501.71875   -2.12       -59.79      -32.12      -16.66      
501.775     -2.18       -67.24      -32.27      -16.81      
501.83125   -2.14       -58.7       -32.19      -16.64      
501.8875    -2.14       -58.88      -32.13      -16.83      
501.94375   -2.16       -61.07      -32.08      -16.63      
502.0       -2.12       -59.16      -32.46      -16.77      
502.05625   -2.13       -71.65      -31.98      -16.68      
502.1125    -2.17       -56.76      -32.77      -16.77      
502.16875   -2.15       -64.12      -31.62      -16.62      
502.225     -2.17       -57.01      -32.84      -16.84      
502.28125   -2.13       -62.32      -32.19      -16.73      
502.3375    -2.14       -64.83      -32.39      -16.84      
502.39375   -2.14       -59.31      -32.29      -16.69      
502.45      -2.19       -60.4       -32.65      -16.89      
502.50625   -2.16       -64.52      -32.18      -16.7       
502.5625    -2.16       -59.53      -32.23      -16.71      
502.61875   -2.17       -56.28      -32.2       -16.64      
502.675     -2.16       -53.17      -32.86      -16.7       
502.73125   -2.17       -58.97      -32.52      -16.72      
502.7875    -2.13       -66.58      -33.16      -16.73      
502.84375   -2.13       -54.74      -32.65      -16.86      
502.9       -2.14       -54.8       -33.36      -16.85      
502.95625   -2.16       -60.36      -32.51      -16.72      
503.0125    -2.15       -59.82      -33.5       -16.84      
503.06875   -2.19       -59.99      -32.99      -16.76      
503.125     -2.15       -61.12      -33.67      -16.72      
503.18125   -2.16       -74.21      -32.65      -16.69      
503.2375    -2.15       -59.75      -33.17      -16.72      
503.29375   -2.18       -63.04      -32.58      -16.82      
503.35      -2.17       -56.98      -32.93      -16.79      
503.40625   -2.18       -55.73      -32.51      -16.7       
503.4625    -2.18       -57.67      -33.02      -16.87      
503.51875   -2.14       -58.7       -32.53      -16.74      
503.575     -2.17       -55.48      -32.81      -16.82      
503.63125   -2.19       -59.1       -32.62      -16.76      
503.6875    -2.2        -59.28      -33.44      -16.92      
503.74375   -2.18       -55.06      -32.71      -16.91      
503.8       -2.15       -55.75      -33.36      -16.89      
503.85625   -2.2        -63.63      -33.34      -16.77      
503.9125    -2.15       -68.01      -34.49      -16.87      
503.96875   -2.17       -54.72      -33.82      -16.79      
504.025     -2.2        -57.03      -33.94      -16.83      
504.08125   -2.2        -59.36      -33.57      -16.72      
504.1375    -2.22       -57.49      -34.26      -16.81      
504.19375   -2.19       -58.32      -33.43      -16.83      
504.25      -2.22       -52.39      -33.93      -16.85      
504.30625   -2.19       -71.29      -33.66      -16.87      
504.3625    -2.2        -59.44      -33.46      -16.86      
504.41875   -2.17       -76.84      -33.03      -16.73      
504.475     -2.21       -59.52      -33.39      -16.93      
504.53125   -2.19       -58.43      -33.15      -16.78      
504.5875    -2.22       -56.33      -33.53      -16.93      
504.64375   -2.23       -55.97      -33.24      -16.72      
504.7       -2.25       -65.14      -33.8       -16.86      
504.75625   -2.22       -67.87      -32.9       -16.85      
504.8125    -2.23       -63.35      -33.53      -16.89      
504.86875   -2.24       -60.26      -33.09      -16.88      
504.925     -2.24       -64.19      -33.49      -16.84      
504.98125   -2.23       -56.09      -33.35      -16.82      
505.0375    -2.21       -56.62      -33.92      -16.81      
505.09375   -2.25       -57.86      -33.19      -16.79      
505.15      -2.27       -64.46      -34.25      -16.77      
505.20625   -2.24       -57.15      -33.34      -16.93      
505.2625    -2.23       -58.82      -33.94      -16.88      
505.31875   -2.26       -55.95      -33.23      -16.97      
505.375     -2.27       -56.61      -33.96      -16.91      
505.43125   -2.24       -74.51      -33.33      -16.81      
505.4875    -2.24       -72.65      -34.18      -16.99      
505.54375   -2.25       -58.53      -33.26      -17.11      
505.6       -2.24       -55.06      -33.34      -16.97      
505.65625   -2.25       -68.15      -33.0       -17.01      
505.7125    -2.28       -61.94      -33.42      -16.86      
505.76875   -2.27       -55.11      -33.04      -17.01      
505.825     -2.28       -70.15      -33.66      -16.98      
505.88125   -2.27       -63.1       -32.69      -16.95      
505.9375    -2.29       -57.84      -33.27      -16.82      
505.99375   -2.31       -66.72      -33.18      -17.05      
506.05      -2.27       -63.6       -33.58      -16.88      
506.10625   -2.26       -59.52      -32.88      -16.97      
506.1625    -2.32       -58.42      -33.7       -16.91      
506.21875   -2.32       -59.79      -33.32      -17.07      
506.275     -2.31       -65.07      -33.77      -16.91      
506.33125   -2.32       -65.15      -33.61      -16.86      
506.3875    -2.38       -59.29      -33.43      -17.1       
506.44375   -2.3        -62.43      -32.82      -16.96      
506.5       -2.31       -54.51      -32.76      -17.02      
506.55625   -2.3        -60.68      -32.69      -17.04      
506.6125    -2.35       -54.04      -32.84      -16.93      
506.66875   -2.34       -55.93      -32.41      -17.12      
506.725     -2.38       -68.14      -33.02      -16.94      
506.78125   -2.39       -58.55      -32.3       -16.94      
506.8375    -2.39       -63.18      -32.99      -16.93      
506.89375   -2.35       -60.43      -32.05      -17.19      
506.95      -2.37       -68.73      -32.38      -17.05      
507.00625   -2.36       -55.68      -32.61      -17.16      
507.0625    -2.36       -57.63      -32.64      -17.08      
507.11875   -2.38       -61.41      -32.65      -17.01      
507.175     -2.34       -65.71      -33.27      -16.93      
507.23125   -2.38       -62.35      -32.51      -17.02      
507.2875    -2.33       -60.19      -33.53      -16.95      
507.34375   -2.36       -60.1       -33.3       -16.93      
507.4       -2.38       -61.77      -33.84      -16.92      
507.45625   -2.37       -69.11      -33.26      -17.04      
507.5125    -2.37       -53.6       -33.6       -17.12      
507.56875   -2.43       -65.37      -32.74      -17.07      
507.625     -2.38       -67.72      -32.86      -17.0       
507.68125   -2.42       -57.46      -33.11      -17.19      
507.7375    -2.43       -59.9       -32.0       -17.02      
507.79375   -2.41       -55.95      -32.28      -17.07      
507.85      -2.47       -56.23      -32.24      -16.97      
507.90625   -2.43       -58.62      -32.31      -17.23      
507.9625    -2.43       -55.17      -32.21      -16.93      
508.01875   -2.44       -58.5       -32.09      -17.1       
508.075     -2.45       -61.19      -32.23      -17.01      
508.13125   -2.47       -63.22      -32.58      -17.03      
508.1875    -2.41       -63.09      -32.45      -17.06      
508.24375   -2.47       -65.53      -32.31      -17.09      
508.3       -2.5        -62.44      -32.37      -16.99      
508.35625   -2.45       -59.4       -32.19      -17.17      
508.4125    -2.49       -61.0       -32.45      -17.07      
508.46875   -2.46       -64.17      -32.36      -17.24      
508.525     -2.49       -78.82      -32.28      -16.96      
508.58125   -2.51       -68.71      -32.27      -16.97      
508.6375    -2.46       -60.69      -32.76      -17.12      
508.69375   -2.51       -58.32      -32.75      -17.06      
508.75      -2.54       -57.3       -32.49      -17.06      
508.80625   -2.49       -69.22      -32.71      -17.06      
508.8625    -2.5        -66.53      -32.73      -17.1       
508.91875   -2.46       -63.45      -32.55      -17.24      
508.975     -2.44       -65.5       -32.53      -17.14      
509.03125   -2.47       -64.62      -32.38      -17.1       
509.0875    -2.49       -59.03      -32.11      -17.05      
509.14375   -2.53       -70.97      -32.34      -17.28      
509.2       -2.49       -53.84      -32.28      -17.07      
509.25625   -2.51       -61.32      -32.68      -17.22      
509.3125    -2.51       -57.83      -32.64      -17.1       
509.36875   -2.5        -58.12      -32.62      -17.2       
509.425     -2.51       -63.76      -32.33      -17.06      
509.48125   -2.51       -56.87      -32.67      -17.14      
509.5375    -2.49       -67.53      -32.75      -17.06      
509.59375   -2.49       -55.31      -33.37      -17.14      
509.65      -2.46       -59.31      -32.75      -17.12      
509.70625   -2.53       -54.09      -33.17      -17.31      
509.7625    -2.5        -55.56      -32.28      -17.11      
509.81875   -2.55       -55.39      -33.19      -17.19      
509.875     -2.49       -68.48      -32.13      -17.14      
509.93125   -2.55       -58.67      -32.43      -17.24      
509.9875    -2.56       -56.28      -32.45      -17.13      
510.04375   -2.6        -67.14      -32.71      -17.2       
510.1       -2.53       -60.83      -32.61      -17.19      
510.15625   -2.59       -58.21      -32.79      -17.15      
510.2125    -2.5        -53.49      -32.47      -16.91      
510.26875   -2.6        -67.96      -33.15      -17.22      
510.325     -2.54       -57.82      -32.43      -17.05      
510.38125   -2.55       -57.3       -33.16      -17.28      
510.4375    -2.53       -55.96      -32.84      -17.14      
510.49375   -2.52       -73.31      -33.41      -17.28      
510.55      -2.52       -61.99      -32.81      -17.13      
510.60625   -2.56       -60.59      -33.39      -17.3       
510.6625    -2.53       -72.96      -32.7       -17.14      
510.71875   -2.56       -63.53      -33.3       -17.31      
510.775     -2.55       -61.38      -32.92      -17.23      
510.83125   -2.56       -67.33      -33.58      -17.31      
510.8875    -2.54       -63.86      -33.45      -17.11      
510.94375   -2.58       -67.73      -33.99      -17.27      
511.0       -2.5        -63.69      -33.11      -17.14      
511.05625   -2.52       -62.54      -34.02      -17.42      
511.1125    -2.54       -56.67      -33.85      -17.12      
511.16875   -2.57       -68.44      -33.79      -17.25      
511.225     -2.54       -61.39      -33.13      -17.19      
511.28125   -2.59       -67.75      -33.95      -17.48      
511.3375    -2.57       -66.23      -33.24      -17.16      
511.39375   -2.58       -57.92      -33.99      -17.33      
511.45      -2.55       -56.58      -33.42      -17.13      
511.50625   -2.54       -63.56      -34.17      -17.42      
511.5625    -2.57       -72.7       -33.25      -17.23      
511.61875   -2.59       -56.54      -33.91      -17.36      
511.675     -2.55       -56.81      -33.55      -17.28      
511.73125   -2.56       -59.77      -34.2       -17.44      
511.7875    -2.5        -58.46      -33.64      -17.15      
511.84375   -2.53       -58.49      -34.37      -17.36      
511.9       -2.5        -55.42      -33.74      -17.2       
511.95625   -2.56       -64.75      -34.26      -17.4       
512.0125    -2.56       -53.61      -33.45      -17.32      
512.06875   -2.54       -58.98      -34.02      -17.25      
512.125     -2.52       -58.57      -33.65      -17.21      
512.18125   -2.58       -63.92      -34.35      -17.42      
512.2375    -2.55       -55.56      -33.82      -17.3       
512.29375   -2.57       -59.63      -34.36      -17.39      
512.35      -2.54       -60.22      -34.21      -17.18      
512.40625   -2.56       -66.74      -35.56      -17.29      
512.4625    -2.53       -58.2       -34.79      -17.25      
512.51875   -2.58       -56.44      -34.66      -17.39      
512.575     -2.56       -65.98      -34.69      -17.33      
512.63125   -2.55       -59.01      -35.7       -17.5       
512.6875    -2.55       -66.37      -34.73      -17.26      
512.74375   -2.62       -56.28      -35.83      -17.43      
512.8       -2.56       -54.42      -34.65      -17.31      
512.85625   -2.57       -58.74      -35.48      -17.34      
512.9125    -2.57       -56.1       -35.18      -17.33      
512.96875   -2.6        -56.4       -36.66      -17.54      
513.025     -2.51       -56.13      -35.8       -17.37      
513.08125   -2.59       -53.04      -36.17      -17.45      
513.1375    -2.53       -56.6       -35.4       -17.31      
513.19375   -2.58       -63.11      -36.03      -17.53      
513.25      -2.49       -65.22      -35.35      -17.36      
513.30625   -2.55       -55.86      -36.86      -17.39      
513.3625    -2.51       -57.79      -35.85      -17.28      
513.41875   -2.55       -58.74      -36.37      -17.37      
513.475     -2.5        -70.52      -35.69      -17.3       
513.53125   -2.58       -74.04      -36.86      -17.52      
513.5875    -2.52       -59.07      -35.38      -17.32      
513.64375   -2.57       -65.83      -37.47      -17.47      
513.7       -2.52       -57.59      -36.26      -17.34      
513.75625   -2.57       -56.85      -36.1       -17.59      
513.8125    -2.52       -61.21      -36.42      -17.33      
513.86875   -2.59       -55.12      -36.7       -17.5       
513.925     -2.53       -54.71      -35.98      -17.35      
513.98125   -2.58       -61.17      -37.47      -17.57      
514.0375    -2.54       -67.48      -37.28      -17.37      
514.09375   -2.56       -58.23      -37.5       -17.58      
514.15      -2.55       -67.75      -36.97      -17.42      
514.20625   -2.57       -60.87      -37.0       -17.5       
514.2625    -2.57       -68.49      -37.02      -17.37      
514.31875   -2.57       -70.64      -37.16      -17.49      
514.375     -2.5        -58.05      -37.07      -17.34      
514.43125   -2.53       -58.57      -37.8       -17.56      
514.4875    -2.51       -56.17      -37.06      -17.36      
514.54375   -2.51       -58.27      -38.07      -17.35      
514.6       -2.49       -59.46      -37.76      -17.28      
514.65625   -2.56       -59.22      -38.33      -17.56      
514.7125    -2.53       -65.29      -38.29      -17.35      
514.76875   -2.54       -60.86      -39.15      -17.63      
514.825     -2.53       -58.99      -38.69      -17.48      
514.88125   -2.57       -60.15      -38.67      -17.59      
514.9375    -2.52       -58.93      -38.75      -17.32      
514.99375   -2.59       -70.31      -39.36      -17.48      
515.05      -2.52       -62.72      -38.77      -17.38      
515.10625   -2.58       -57.1       -39.53      -17.67      
515.1625    -2.53       -55.91      -38.55      -17.38      
515.21875   -2.58       -60.59      -39.95      -17.49      
515.275     -2.5        -60.05      -38.4       -17.35      
515.33125   -2.54       -70.05      -39.09      -17.62      
515.3875    -2.51       -66.7       -38.39      -17.46      
515.44375   -2.56       -71.24      -39.68      -17.66      
515.5       -2.54       -61.27      -37.84      -17.48      
515.55625   -2.53       -55.79      -38.97      -17.61      
515.6125    -2.5        -57.12      -40.04      -17.43      
515.66875   -2.52       -51.85      -39.73      -17.69      
515.725     -2.51       -71.66      -38.63      -17.44      
515.78125   -2.51       -64.11      -40.5       -17.5       
515.8375    -2.54       -68.88      -40.64      -17.44      
515.89375   -2.57       -60.86      -40.0       -17.58      
515.95      -2.55       -52.77      -39.83      -17.47      
516.00625   -2.57       -57.14      -41.29      -17.59      
516.0625    -2.51       -61.19      -41.61      -17.47      
516.11875   -2.52       -62.22      -41.42      -17.61      
516.175     -2.53       -66.16      -42.25      -17.5       
516.23125   -2.57       -63.86      -39.86      -17.65      
516.2875    -2.53       -58.04      -41.81      -17.55      
516.34375   -2.56       -57.15      -40.59      -17.65      
516.4       -2.5        -59.55      -40.96      -17.59      
516.45625   -2.56       -55.57      -41.85      -17.65      
516.5125    -2.53       -57.38      -41.67      -17.45      
516.56875   -2.55       -59.63      -41.32      -17.5       
516.625     -2.49       -67.82      -40.27      -17.66      
516.68125   -2.54       -55.3       -40.64      -17.6       
516.7375    -2.49       -55.51      -40.7       -17.56      
516.79375   -2.55       -52.8       -42.4       -17.69      
516.85      -2.48       -63.16      -43.38      -17.5       
516.90625   -2.52       -65.65      -41.44      -17.69      
516.9625    -2.48       -66.27      -41.79      -17.44      
517.01875   -2.48       -58.95      -42.17      -17.67      
517.075     -2.47       -59.16      -41.86      -17.56      
517.13125   -2.52       -54.8       -40.85      -17.65      
517.1875    -2.45       -67.26      -42.03      -17.5       
517.24375   -2.51       -66.53      -41.64      -17.5       
517.3       -2.46       -62.2       -42.77      -17.57      
517.35625   -2.48       -53.15      -43.64      -17.79      
517.4125    -2.51       -70.58      -43.87      -17.61      
517.46875   -2.5        -56.54      -42.91      -17.78      
517.525     -2.53       -63.75      -44.67      -17.44      
517.58125   -2.52       -54.48      -43.1       -17.59      
517.6375    -2.49       -62.71      -47.16      -17.57      
517.69375   -2.56       -63.15      -44.26      -17.68      
517.75      -2.51       -61.09      -45.44      -17.68      
517.80625   -2.58       -62.08      -42.49      -17.73      
517.8625    -2.51       -58.41      -46.95      -17.65      
517.91875   -2.55       -67.72      -44.35      -17.73      
517.975     -2.52       -55.28      -48.38      -17.57      
518.03125   -2.56       -65.4       -45.18      -17.65      
518.0875    -2.49       -57.84      -46.13      -17.61      
518.14375   -2.53       -55.49      -44.22      -17.71      
518.2       -2.47       -65.81      -44.78      -17.64      
518.25625   -2.47       -55.72      -44.91      -17.68      
518.3125    -2.41       -58.31      -47.58      -17.67      
518.36875   -2.52       -65.26      -44.71      -17.73      
518.425     -2.47       -71.07      -46.98      -17.6       
518.48125   -2.51       -65.06      -44.83      -17.82      
518.5375    -2.47       -65.59      -47.13      -17.74      
518.59375   -2.45       -58.74      -46.11      -17.77      
518.65      -2.49       -61.54      -46.72      -17.74      
518.70625   -2.52       -58.29      -44.95      -17.79      
518.7625    -2.46       -64.96      -46.82      -17.65      
518.81875   -2.52       -57.39      -45.34      -17.82      
518.875     -2.49       -56.54      -47.37      -17.66      
518.93125   -2.54       -53.76      -46.77      -17.88      
518.9875    -2.51       -62.82      -49.96      -17.8       
519.04375   -2.51       -58.21      -45.06      -17.69      
519.1       -2.47       -67.3       -46.39      -17.76      
519.15625   -2.52       -72.49      -47.11      -17.77      
519.2125    -2.52       -67.95      -48.68      -17.66      
519.26875   -2.52       -64.83      -48.38      -17.78      
519.325     -2.49       -72.6       -51.86      -17.9       
519.38125   -2.51       -57.49      -47.04      -17.78      
519.4375    -2.52       -59.95      -51.76      -17.73      
519.49375   -2.54       -55.44      -48.69      -17.8       
519.55      -2.46       -58.93      -51.06      -17.72      
519.60625   -2.51       -57.13      -51.01      -17.85      
519.6625    -2.51       -54.96      -56.09      -17.82      
519.71875   -2.52       -55.37      -51.88      -17.86      
519.775     -2.48       -58.39      -61.72      -17.64      
519.83125   -2.51       -61.37      -52.83      -17.89      
519.8875    -2.46       -63.38      -59.46      -17.62      
519.94375   -2.5        -69.48      -59.24      -17.84      
520.0       -2.46       -61.73      -55.03      -17.79      
